time_ms,subject_id,event,Fp1,Fp2,F3,F4,C3,C4,O1,O2
0.000000,1,Relaxed,-7.075174,-16.716997,3.191400,-14.135027,-2.917993,11.540381,14.347682,23.533645
4.000000,1,Relaxed,-8.420636,-13.304537,11.581697,-13.982817,-6.251749,8.272374,20.226346,24.353437
8.000000,1,Relaxed,-1.848730,-14.962167,12.665925,-14.003466,-2.266254,9.370249,18.840286,24.499381
12.000000,1,Relaxed,0.864132,-16.558049,11.362330,,-1.208470,5.199874,18.905902,17.290899
16.000000,1,Relaxed,5.417504,-18.153318,16.362025,-7.090384,10.961693,5.647293,21.398778,8.844462
20.000000,1,Relaxed,7.756930,-19.780533,21.586035,-5.106948,13.203145,4.363924,20.497092,-0.616848
24.000000,1,Relaxed,12.634119,-16.643932,23.451559,-5.171206,12.128072,-3.587312,16.270994,-9.590071
28.000000,1,Relaxed,9.040928,-17.452805,24.502368,-1.378687,11.191724,-5.337978,12.729707,-14.440269
32.000000,1,Relaxed,6.468328,-14.503738,24.964507,3.168241,5.910434,-13.003555,0.610737,-20.056031
36.000000,1,Relaxed,3.997886,-5.877107,16.792581,8.427866,5.759996,-11.392553,4.127492,-28.666552
40.000000,1,Relaxed,3.116185,-2.990280,12.585987,11.060213,6.751120,-12.565916,-0.963890,-38.211308
44.000000,1,Relaxed,0.709762,-1.122821,7.700615,9.615999,0.244227,-9.590482,-7.728747,-37.482992
48.000000,1,Relaxed,-0.517609,1.467020,3.755620,20.709600,-5.204832,-1.576556,-6.900234,-41.120477
52.000000,1,Relaxed,-1.667432,3.531606,0.100639,20.802701,-13.088498,-2.900385,-12.648221,-33.064960
56.000000,1,Relaxed,-0.128063,8.819035,-3.491836,22.088513,-13.036352,-7.436257,-16.708867,-32.170742
60.000000,1,Relaxed,-7.762815,8.265280,-8.536131,17.998471,-20.986134,0.629083,-18.152541,-28.592656
64.000000,1,Relaxed,-10.008710,6.077196,-14.364465,14.013397,-26.584736,7.217995,-19.372264,-19.327693
68.000000,1,Relaxed,-10.992705,3.396106,-11.981980,11.214302,-24.275465,10.913820,-21.263832,-14.276091
72.000000,1,Relaxed,-7.048493,4.321082,-14.926365,8.447447,-22.878034,15.784698,-15.822150,-9.008050
76.000000,1,Relaxed,-4.932818,-6.810269,-11.837836,7.146591,-18.523581,17.441446,-15.594617,1.408675
80.000000,1,Relaxed,-7.600679,-5.065768,-9.995502,-0.770243,-16.332749,14.236264,-7.108010,5.503735
84.000000,1,Relaxed,-10.365477,-10.541277,-6.550802,-3.619986,-16.411597,14.122637,-0.427191,10.319143
88.000000,1,Relaxed,-11.485183,-6.873687,-9.860611,-7.518935,-12.141424,14.956170,0.561252,18.972354
92.000000,1,Relaxed,-8.342086,-6.405049,-3.301988,-9.908464,-11.133644,12.599657,8.415158,21.607589
96.000000,1,Relaxed,-6.329114,-9.383468,-6.496420,-15.320528,-5.853444,8.975499,14.439896,26.884912
100.000000,1,Relaxed,-3.616936,-5.231529,-1.644918,-9.048560,-4.421333,7.487704,20.729794,25.845452
104.000000,1,Relaxed,-2.124218,-7.523566,-1.554180,-11.041965,7.153510,7.448425,25.952927,26.302114
108.000000,1,Relaxed,3.753626,-10.262197,4.539870,-7.577289,4.260683,6.452190,25.003953,21.794499
112.000000,1,Relaxed,6.853470,-2.153074,13.249218,-10.891648,6.816668,-0.004232,25.335258,21.804757
116.000000,1,Relaxed,8.822368,1.454240,11.665559,-12.498403,9.113785,-1.043591,22.889704,15.954665
120.000000,1,Relaxed,10.369713,2.880498,16.015326,-7.307357,13.703341,-8.343893,19.680943,6.353769
124.000000,1,Relaxed,8.710055,0.931862,14.995162,-12.501761,14.523667,-7.703323,12.304280,-0.585346
128.000000,1,Relaxed,9.379785,0.842116,17.733226,-5.413109,22.194709,-10.251850,13.858116,-7.616919
132.000000,1,Relaxed,7.573762,5.215133,18.563038,-3.803087,19.317398,-11.315312,9.113001,-15.860809
136.000000,1,Relaxed,5.806285,9.105406,19.798446,-2.192152,21.708395,-17.569187,3.107990,-24.425544
140.000000,1,Relaxed,2.045688,12.023520,14.272101,-0.077136,14.204870,-14.205811,-6.548549,-25.895491
144.000000,1,Relaxed,-7.809918,12.067986,9.744187,-1.491902,10.507590,-20.920745,-12.890837,-28.202451
148.000000,1,Relaxed,-10.570196,17.913627,5.701096,2.798525,7.040704,-11.384384,-17.179644,-27.604347
152.000000,1,Relaxed,-14.076309,20.193181,2.094651,2.579364,5.765674,-10.446523,-20.297387,-27.759289
156.000000,1,Relaxed,-16.003365,14.875171,-3.086936,4.890521,-4.828204,-4.083435,-20.316586,-27.523124
160.000000,1,Relaxed,-16.204600,16.316427,-3.835963,6.757072,-5.991663,3.924099,-20.223320,-24.422156
164.000000,1,Relaxed,-13.632212,16.045406,-2.654559,2.997969,-9.527840,9.320973,-20.095076,-18.129806
168.000000,1,Relaxed,-19.571470,9.561709,-5.713316,-4.262740,-11.919221,11.013534,-23.518363,-10.015183
172.000000,1,Relaxed,-17.413612,8.655260,-4.287501,-4.554266,-13.476517,16.848916,-21.009229,-5.426226
176.000000,1,Relaxed,-24.420406,2.950188,-6.268886,-11.703420,-11.408868,22.103840,-17.230562,1.768082
180.000000,1,Relaxed,-23.045443,-1.979683,-0.306475,-17.156428,-13.319381,19.893887,-11.678870,5.438844
184.000000,1,Relaxed,-22.033299,-5.955123,-3.304670,-16.500283,-5.376267,29.013100,-0.455745,10.485836
188.000000,1,Relaxed,-19.353057,-11.975323,-0.696607,-17.882332,-6.081344,26.519814,7.312173,14.778200
192.000000,1,Relaxed,-16.119200,-13.626819,-1.691411,-18.709136,-7.071946,22.876277,13.898765,19.423585
196.000000,1,Relaxed,-13.076008,-8.679958,2.492476,-12.306361,-5.434935,18.370353,19.709859,17.253814
200.000000,1,Relaxed,-13.064826,-7.283786,3.811418,-16.286502,-6.268690,16.761600,24.765833,22.565790
204.000000,1,Relaxed,-10.695188,-10.956629,2.467282,-15.815788,-1.689112,11.789702,28.943160,23.382522
208.000000,1,Relaxed,-3.916145,-6.409864,6.016596,-14.069882,-3.226119,13.770486,29.354345,21.000732
212.000000,1,Relaxed,-0.269498,-8.416567,10.062783,-7.375662,1.931821,12.090556,34.187223,11.633130
216.000000,1,Relaxed,3.477186,-7.849066,5.539554,-7.568978,7.949596,7.389958,31.835076,8.094422
220.000000,1,Relaxed,8.086688,-7.500612,7.785376,-7.379326,14.064380,7.351326,27.302538,0.381152
224.000000,1,Relaxed,10.465521,-4.684078,10.496993,-3.938318,17.350551,1.244860,24.115434,-2.186017
228.000000,1,Relaxed,13.217989,-2.505929,16.561970,1.971139,18.270546,-4.431471,19.066899,-14.635484
232.000000,1,Relaxed,11.111774,5.512313,13.658752,3.301539,15.741274,-8.734033,15.129687,-19.660980
236.000000,1,Relaxed,10.079007,8.257471,6.592062,3.897776,12.793988,-10.850171,5.956453,-27.800983
240.000000,1,Relaxed,5.551495,12.405398,1.166157,10.638075,12.601163,-12.402110,6.537251,-28.362282
244.000000,1,Relaxed,4.875668,12.180657,-5.221257,13.615322,6.591768,-13.171018,-0.010298,-25.782390
248.000000,1,Relaxed,4.585081,21.261522,-4.999611,15.518063,2.136155,-10.678981,-5.728711,-29.111204
252.000000,1,Relaxed,1.506675,21.597592,-10.590206,17.507956,2.130644,-10.715066,-11.380415,-25.429627
256.000000,1,Relaxed,1.025310,25.170745,-14.385389,17.056723,-6.142261,-11.753200,-17.724254,-20.002816
260.000000,1,Relaxed,-3.977345,21.474819,-17.035101,10.894186,-8.584320,-6.475460,-22.776303,-16.197229
264.000000,1,Relaxed,-5.720119,21.393133,-21.632230,8.296853,-9.839321,1.008342,-18.862481,-9.694824
268.000000,1,Relaxed,-6.506921,21.956460,-22.325075,5.346201,-8.476497,6.755101,-15.114449,-3.867116
272.000000,1,Relaxed,-7.462353,15.616212,-20.463228,-2.066560,-4.680996,8.925120,-20.223052,-0.362020
276.000000,1,Relaxed,-3.442723,6.734925,-16.543700,-3.499601,-2.674098,12.274521,-16.314970,7.553157
280.000000,1,Relaxed,-5.976807,8.906014,-12.069126,-9.192057,-2.441048,9.205907,-9.461683,16.209513
284.000000,1,Relaxed,-6.748267,3.484337,-11.299619,-11.735180,-2.540167,8.847381,-6.271787,23.605244
288.000000,1,Relaxed,-7.349715,6.667744,-8.507566,-21.091519,-0.057858,9.097663,1.465817,30.200301
292.000000,1,Relaxed,-7.557583,3.444597,-9.323490,-19.863586,0.457621,10.901494,6.127564,31.947843
296.000000,1,Relaxed,-5.553014,2.941039,-9.822587,-20.269505,3.944274,6.811557,11.544717,33.502038
300.000000,1,Relaxed,-4.142334,2.635655,-5.556681,-16.466656,13.084907,5.255191,17.719877,34.496819
304.000000,1,Relaxed,-0.956038,-3.748689,-2.652935,-16.712662,12.103753,8.111951,17.028127,31.290904
308.000000,1,Relaxed,3.849795,-4.712197,-0.334615,-11.164551,15.985043,2.175626,20.486432,29.542530
312.000000,1,Relaxed,4.119476,-2.330845,6.791501,-12.482183,15.841654,3.347905,23.107082,26.755877
316.000000,1,Relaxed,6.641534,0.743210,10.112532,-14.796583,20.706452,-5.956756,20.685333,18.041341
320.000000,1,Relaxed,7.533079,-3.571247,10.486161,-13.507601,21.973894,-9.050740,18.245677,12.972835
324.000000,1,Relaxed,8.343331,-5.150656,15.643837,-12.810402,24.633342,-8.000965,13.827368,4.995863
328.000000,1,Relaxed,11.537478,-0.736432,15.307978,-6.217336,25.980748,-9.214422,5.447778,-7.517544
332.000000,1,Relaxed,9.094420,-2.757756,18.195980,-5.601679,27.974779,-12.979195,4.256235,-13.156896
336.000000,1,Relaxed,8.788300,0.009492,15.146602,-0.536214,25.584363,-9.491339,2.455566,-21.504640
340.000000,1,Relaxed,8.633490,0.409430,11.737695,4.750912,18.071319,-16.055728,-2.754653,-26.390521
344.000000,1,Relaxed,0.648813,6.427864,5.126282,8.732470,10.662794,-15.318845,-8.046308,-22.412390
348.000000,1,Relaxed,-1.142062,10.955103,1.603594,4.892740,6.364904,-14.657479,-14.744204,-29.382392
352.000000,1,Relaxed,-6.599978,14.413319,-4.184571,15.198110,-2.672543,-11.045299,-19.515954,-29.883791
356.000000,1,Relaxed,-5.633115,10.118660,-12.194219,14.251558,-6.773640,-2.876342,-19.062111,-25.553561
360.000000,1,Relaxed,-6.960462,11.927902,-13.839756,11.028150,-8.976596,-2.435008,-20.454755,-22.039516
364.000000,1,Relaxed,-5.647541,3.563008,-14.064420,7.290181,-15.120638,4.269102,-18.166273,-15.649730
368.000000,1,Relaxed,-3.501224,0.659378,-11.678326,7.222403,-12.324275,10.115569,-20.808569,-6.224427
372.000000,1,Relaxed,-9.215748,2.934435,-11.151609,5.907545,-17.880312,15.590398,-19.848816,-5.303462
376.000000,1,Relaxed,-5.759621,-2.356648,-14.228630,0.848254,-17.886329,13.895867,-16.163995,0.590470
380.000000,1,Relaxed,-6.748928,-7.760126,-13.402249,-1.836167,-16.513107,17.766445,-9.337649,9.860901
384.000000,1,Relaxed,-7.798897,-11.275380,-14.429176,-5.989614,-13.285861,19.061394,-0.939695,13.523070
388.000000,1,Relaxed,-7.214318,-11.297908,-17.589109,-6.692587,-10.739149,21.531048,4.247958,18.491748
392.000000,1,Relaxed,-0.891849,-11.851159,-10.073314,-4.324200,-7.892589,12.742710,9.908872,20.663664
396.000000,1,Relaxed,0.925194,-15.387490,-5.191235,-3.398287,-7.029988,12.818829,19.376733,28.029288
400.000000,1,Relaxed,4.720357,-12.165989,-10.016099,-3.737451,-7.226433,7.083913,17.077634,29.723155
404.000000,1,Relaxed,6.703578,-10.431960,-5.700520,-5.787893,-5.936045,6.990833,26.979543,28.736858
408.000000,1,Relaxed,13.643886,-11.632933,-1.173040,-0.731937,1.685572,1.673315,22.309847,24.930450
412.000000,1,Relaxed,15.187850,-9.452097,-3.465618,-1.062384,0.431744,0.766156,25.451896,21.674666
416.000000,1,Relaxed,18.863030,-9.518812,1.004065,0.778873,9.267672,-3.040510,26.637001,18.641446
420.000000,1,Relaxed,24.779305,-7.172682,1.847929,2.737064,12.771407,-8.852032,20.717445,6.762766
424.000000,1,Relaxed,25.869710,-5.455912,11.288346,6.728277,17.123918,-13.753993,12.785587,1.263039
428.000000,1,Relaxed,27.013119,-4.830965,10.195727,5.257257,14.304797,-17.207455,10.295642,-4.489750
432.000000,1,Relaxed,23.420298,0.323368,9.968162,5.518931,15.584992,-20.557400,3.539892,-10.575645
436.000000,1,Relaxed,19.113298,6.455099,9.196096,10.637385,14.742493,-25.492135,-2.473613,-16.243874
440.000000,1,Relaxed,17.760030,6.779125,3.377399,15.722568,15.101054,-25.151858,-7.874324,-19.308125
444.000000,1,Relaxed,9.303966,11.008733,-3.049759,15.332345,11.327088,-26.857877,-10.947117,-22.636215
448.000000,1,Relaxed,7.864693,11.845866,-4.487182,20.656621,4.942339,-22.222438,-16.885993,-22.950381
452.000000,1,Relaxed,4.783978,12.808165,-4.008513,21.503557,1.337855,-18.224260,-16.500429,-20.041578
456.000000,1,Relaxed,2.580925,14.869264,-9.109237,16.352928,-1.858114,-16.717988,-27.191401,-15.833137
460.000000,1,Relaxed,-3.365144,19.531485,-15.402327,13.480084,-11.028579,-13.630710,-30.830154,-16.403095
464.000000,1,Relaxed,-2.814362,13.561322,-13.305787,6.426979,-11.192382,-6.054090,-31.761410,-6.520953
468.000000,1,Relaxed,-6.319432,12.491521,-15.909615,4.992533,-10.827035,-1.219417,-25.536098,-5.749083
472.000000,1,Relaxed,-9.078773,2.668792,-7.631860,0.828526,-10.124757,8.704924,-29.721182,-0.234585
476.000000,1,Relaxed,-8.331504,-1.225092,-7.590954,-2.927338,-2.767439,12.376587,-22.491000,6.510451
480.000000,1,Relaxed,-6.985162,-1.702790,-6.562719,-8.743811,-8.545567,10.046108,-19.491336,11.446603
484.000000,1,Relaxed,-8.229159,-11.710046,-2.991114,-12.576264,-6.737712,15.667111,-16.253306,18.416790
488.000000,1,Relaxed,-7.872653,-14.849037,-2.901681,-14.011279,-8.881356,9.107933,-8.186901,22.464869
492.000000,1,Relaxed,-6.465879,-9.300062,-0.165617,-16.401964,-5.444438,7.318465,1.541020,24.238434
496.000000,1,Relaxed,-10.054980,-15.058633,4.406489,-19.431955,-3.104423,7.926993,6.499212,28.446907
500.000000,1,Relaxed,-9.957276,-15.978990,8.071160,-15.577099,-3.480987,9.060619,15.164930,26.182289
504.000000,1,Relaxed,-8.324603,-19.445751,8.501088,-14.650773,0.588693,14.047036,22.665656,24.150175
508.000000,1,Relaxed,0.777658,-18.435580,11.836618,-8.552873,1.466552,7.155503,21.441813,22.695763
512.000000,1,Relaxed,2.373029,-19.827504,15.471887,-6.413607,2.468433,2.553734,17.497868,15.665403
516.000000,1,Relaxed,5.552673,-16.822116,16.561908,-6.459125,7.709258,-1.056042,16.609313,14.732696
520.000000,1,Relaxed,6.197712,-14.947789,23.081674,-8.013886,5.923928,1.062786,15.597153,-0.354755
524.000000,1,Relaxed,7.729113,-17.988784,18.987072,-3.609485,4.612611,0.129518,13.623517,-7.198101
528.000000,1,Relaxed,10.985879,-17.005963,24.484402,-0.535894,15.344716,-4.025846,12.198884,-16.834352
532.000000,1,Relaxed,9.772106,-14.392484,23.374335,3.343466,10.648902,-9.720703,8.536159,-24.548170
536.000000,1,Relaxed,8.190290,-13.011005,15.540849,11.232195,9.139712,-11.936759,5.995044,-30.612035
540.000000,1,Relaxed,3.291533,-6.368322,13.961833,14.046777,7.780312,-8.710542,-3.047455,-34.833039
544.000000,1,Relaxed,-2.358643,-0.241386,8.764787,16.532104,-1.846203,-10.884947,-9.991654,-32.459725
548.000000,1,Relaxed,-3.738257,3.344614,3.991870,16.061058,-7.513994,-10.233409,-8.862718,-37.403707
552.000000,1,Relaxed,-4.860454,6.653880,-2.194112,22.263109,-14.265305,-3.438047,-11.359565,-32.219451
556.000000,1,Relaxed,-1.683559,7.743376,-1.657525,20.324730,-18.622408,1.029819,-15.676448,-30.753732
560.000000,1,Relaxed,-4.888601,4.884302,-13.317309,22.066190,-18.194619,2.214898,-18.398925,-28.594214
564.000000,1,Relaxed,-3.304976,5.315924,-11.454517,17.287550,-18.806948,7.243735,-17.807142,-20.365008
568.000000,1,Relaxed,-6.817462,5.253752,-9.738128,13.784472,-20.112653,9.569226,,-14.201025
572.000000,1,Relaxed,-9.227815,0.556014,-10.395028,3.890980,-22.479363,11.905941,-22.574699,-8.863268
576.000000,1,Relaxed,-10.235819,0.979862,-10.900154,1.916171,-21.273960,10.805265,-14.227767,-2.658639
580.000000,1,Relaxed,-11.046408,-3.303689,-14.114077,-2.687654,-22.953566,12.730791,-7.870572,6.340356
584.000000,1,Relaxed,-5.524438,-5.494961,-11.070060,-6.823762,-14.492336,14.094025,0.703166,11.759574
588.000000,1,Relaxed,-10.027605,-5.371244,-7.495397,-3.438233,-10.687494,19.518760,3.802037,16.702918
592.000000,1,Relaxed,-4.391532,-7.655447,-4.499553,-9.649774,-3.752734,11.208803,11.633469,20.696434
596.000000,1,Relaxed,-5.884854,-10.736428,-1.591734,-9.740180,-5.912263,13.808317,15.931228,25.224166
600.000000,1,Relaxed,-1.018039,-4.311277,1.489300,-12.421853,-6.413748,4.859720,19.039608,27.363980
604.000000,1,Relaxed,-0.801453,-1.139460,1.975733,-12.938727,-1.984091,7.864800,22.230159,24.712006
608.000000,1,Relaxed,0.799949,-3.096543,2.528950,-9.164557,1.950409,2.368536,24.377439,25.902542
612.000000,1,Relaxed,5.182930,-0.477194,3.114645,-6.531013,9.036832,-1.971766,25.188287,21.905122
616.000000,1,Relaxed,8.165952,-4.293749,7.825020,-9.393642,13.567281,0.938806,24.392248,14.494074
620.000000,1,Relaxed,12.909901,-6.170006,12.595242,-8.832061,15.195482,-1.980581,21.553825,11.026386
624.000000,1,Relaxed,11.232495,-1.783129,17.582739,-9.485480,17.060424,-10.010571,12.586983,-1.164820
628.000000,1,Relaxed,7.775220,-2.396022,18.811333,-3.993728,21.698310,-12.726533,8.167660,-7.193320
632.000000,1,Relaxed,4.465171,4.999986,17.651888,-3.192324,23.107011,-17.620387,2.117733,-12.788954
636.000000,1,Relaxed,3.490256,11.844207,13.871798,-3.815923,18.554962,-18.171132,-3.035979,-19.716432
640.000000,1,Relaxed,2.359345,7.689410,8.485203,-3.628136,17.639687,-17.195673,-9.058923,-29.716663
644.000000,1,Relaxed,-3.851352,10.269463,7.790992,0.299000,15.270583,-15.706621,-9.295603,-27.726748
648.000000,1,Relaxed,-7.002736,12.436049,3.104400,6.948194,9.900443,-16.086680,-12.437196,-28.599282
652.000000,1,Relaxed,-8.590652,16.644489,1.764600,9.500114,2.181439,-11.524665,-18.517558,-31.456022
656.000000,1,Relaxed,-9.549575,17.704387,-0.503143,3.071787,-2.316836,-6.029984,-22.704052,-24.462506
660.000000,1,Relaxed,-15.253978,20.816704,-6.452013,3.193783,-5.859286,-2.512203,-24.347145,-22.242330
664.000000,1,Relaxed,-19.388965,17.005452,-5.940290,3.488045,-10.164797,4.709671,-22.091070,-17.489857
668.000000,1,Relaxed,-17.398511,11.389769,-5.975230,-2.864593,-9.999058,10.883912,-23.323272,-14.907804
672.000000,1,Relaxed,-18.134008,5.273597,-7.578707,-1.826572,-11.397915,16.795094,-21.380678,-6.738814
676.000000,1,Relaxed,-15.081087,0.499488,-5.628732,-6.751041,-10.034768,23.709825,-15.244548,1.177161
680.000000,1,Relaxed,-17.992808,-6.320074,-1.749078,-14.389604,-9.683765,20.016261,-6.433170,4.140106
684.000000,1,Relaxed,-21.912417,-5.482770,-2.400973,-16.644551,-9.612152,24.271223,-6.338122,5.468333
688.000000,1,Relaxed,-22.908302,-10.245014,-1.399592,-18.521975,-6.912028,22.509353,4.618395,15.569840
692.000000,1,Relaxed,-16.003948,-6.416819,2.380595,-20.459510,-12.994248,21.704910,13.454964,17.855954
696.000000,1,Relaxed,-13.135774,-6.387814,0.781939,-19.325454,-6.355440,18.577738,13.974312,17.356299
700.000000,1,Relaxed,-12.726738,-9.921243,0.177607,-12.148154,-3.674043,18.659865,26.063348,20.503016
704.000000,1,Relaxed,-7.931545,-12.009762,3.056467,-14.153434,-2.765650,18.323951,31.002063,21.302737
708.000000,1,Relaxed,1.299357,-10.480745,1.095428,-7.105604,4.492333,14.536125,31.015040,17.030349
712.000000,1,Relaxed,1.092383,-14.854960,11.045509,-8.280326,3.926938,11.660643,29.294726,11.978880
716.000000,1,Relaxed,4.991428,-5.952413,10.349929,-6.909848,6.370404,7.184601,26.914902,5.739043
720.000000,1,Relaxed,10.096919,-5.075039,11.292896,-5.233887,13.097368,7.422355,24.798858,1.092291
724.000000,1,Relaxed,9.488472,-4.021547,9.806310,-5.379823,14.819246,1.734958,22.400079,-5.894592
728.000000,1,Relaxed,11.866659,-1.152636,9.524120,1.178074,17.368127,-5.079120,18.882971,-14.222661
732.000000,1,Relaxed,12.780062,0.093860,8.867405,0.771309,18.499603,-3.056465,14.403973,-20.994184
736.000000,1,Relaxed,13.323282,2.299984,8.398131,9.380468,15.880893,-10.662728,11.242847,-23.145091
740.000000,1,Relaxed,12.674611,9.592820,3.273343,5.652793,16.159182,-9.794611,-0.046031,-25.860192
744.000000,1,Relaxed,5.891656,15.575556,0.549242,11.722083,8.757080,-11.985477,-6.699850,-26.940411
748.000000,1,Relaxed,3.336926,20.655060,-10.065664,15.845670,1.030418,-14.931814,-5.223731,-24.976053
752.000000,1,Relaxed,-4.063414,23.994467,-13.829395,17.303003,-3.963861,-10.059994,-11.686516,-26.344285
756.000000,1,Relaxed,-0.660708,26.351236,-13.748731,14.162132,-2.737675,-9.041879,-15.264442,-24.445919
760.000000,1,Relaxed,-2.408442,20.347055,-22.022066,13.180455,-5.766238,-3.173984,-17.368025,-18.583462
764.000000,1,Relaxed,-3.589550,20.260753,-21.336380,11.048527,-9.582900,2.810435,-18.713179,-11.964985
768.000000,1,Relaxed,-3.827510,20.410800,-20.962412,8.140730,-6.597713,6.930725,-21.310823,-7.134042
772.000000,1,Relaxed,-4.192818,12.766420,-17.186126,-2.291969,-8.474120,8.172860,-18.996746,3.159295
776.000000,1,Relaxed,-3.578488,14.259702,-19.279850,-4.863688,-6.517123,7.909866,-19.426913,12.556955
780.000000,1,Relaxed,-9.795146,8.887609,-18.305233,-9.882488,-4.665323,14.865361,-12.909608,17.231410
784.000000,1,Relaxed,-7.691784,4.775545,-14.739882,-14.352488,-3.066414,11.320124,-9.657224,21.849436
788.000000,1,Relaxed,-7.714134,0.177757,-14.357136,-13.688251,3.491074,9.075184,4.270135,26.258362
792.000000,1,Relaxed,-5.419611,0.133940,-7.365755,-14.521940,4.058783,6.958764,7.311895,33.580648
796.000000,1,Relaxed,-1.032435,4.225595,-4.299106,-17.043591,5.335384,8.900026,13.187916,32.029197
800.000000,1,Relaxed,-0.940277,-1.473232,-1.951319,-21.380060,5.775538,2.847970,16.267424,33.903089
804.000000,1,Relaxed,1.891575,-1.147171,-1.958825,-17.836404,10.868625,2.055385,19.676508,37.496636
808.000000,1,Relaxed,1.626092,-1.932590,6.799187,-18.676239,11.552390,0.034834,21.083872,32.073341
812.000000,1,Relaxed,4.846136,2.867987,5.651807,-15.300565,19.354056,-1.063330,22.635254,24.943783
816.000000,1,Relaxed,10.275661,-3.346408,7.792818,-10.680543,24.392691,-3.896167,18.445334,20.088657
820.000000,1,Relaxed,14.149016,-4.072892,9.313401,-7.079102,22.378214,-3.964982,14.641985,10.469024
824.000000,1,Relaxed,14.662766,-4.912612,14.709870,-8.564846,19.437818,-8.019720,12.218340,2.309588
828.000000,1,Relaxed,10.863373,-3.918929,20.130558,-5.534112,27.018750,-10.413858,5.943034,-5.111299
832.000000,1,Relaxed,10.756090,0.885369,20.034273,-7.027895,22.246949,-14.049937,5.076686,-10.488176
836.000000,1,Relaxed,8.002947,9.226978,15.788544,-0.459190,18.131418,-17.518463,-1.432551,-18.339313
840.000000,1,Relaxed,9.570399,8.646311,9.357717,3.059764,15.244862,-19.008369,-7.108739,-21.791758
844.000000,1,Relaxed,5.919200,4.943811,1.106119,10.727818,11.848517,-16.850330,-9.351898,-28.672879
848.000000,1,Relaxed,-1.080759,9.240933,1.690224,12.180885,10.516607,-5.360875,-12.269919,-29.000967
852.000000,1,Relaxed,-1.259301,8.332771,-4.751053,15.804556,1.919467,-6.716773,-17.231137,-23.637725
856.000000,1,Relaxed,-5.512623,8.035977,-9.431641,18.352035,-2.994760,-4.542434,-20.861559,-21.446604
860.000000,1,Relaxed,-6.210274,13.278976,-10.731398,13.719504,-10.653046,-3.828445,-23.689323,-19.297657
864.000000,1,Relaxed,-6.215783,10.835621,-13.731261,9.013384,-15.589819,4.286450,-26.360332,-18.332418
868.000000,1,Relaxed,-4.476408,6.220938,-14.315289,14.426647,-16.265512,9.205187,-25.578185,-12.049062
872.000000,1,Relaxed,-6.798115,-1.820319,-14.661701,5.412352,-13.446862,12.584601,-18.809957,-7.353847
876.000000,1,Relaxed,-4.974680,-5.998757,-13.281202,4.659728,-12.064973,15.944544,-13.305665,0.642373
880.000000,1,Relaxed,-7.445068,-7.933813,-14.684823,1.608605,-11.385489,20.168163,-10.727498,6.153895
884.000000,1,Relaxed,-3.985594,-10.676147,-11.251463,-2.256407,-13.711643,18.695220,-1.881155,17.234180
888.000000,1,Relaxed,-6.041009,-12.483184,-12.958243,-5.410313,-12.225678,13.619882,2.263055,16.794556
892.000000,1,Relaxed,-3.809143,-14.424706,-14.026998,-5.884101,-10.027397,12.709848,12.191453,21.555633
896.000000,1,Relaxed,-1.642463,-11.088475,-9.262839,-5.161223,-9.583354,12.685589,18.581269,26.351580
900.000000,1,Relaxed,4.111124,-10.252489,-11.889535,-5.184985,-7.642044,8.450089,24.100760,27.770298
904.000000,1,Relaxed,5.792182,-15.705350,-5.859636,3.698575,-2.925367,7.890602,23.291266,21.865862
908.000000,1,Relaxed,11.554735,-11.333515,-0.851910,1.173524,1.948112,5.047445,26.615944,22.878384
912.000000,1,Relaxed,23.155831,-9.582093,-0.192889,3.851386,6.537365,-0.163857,27.192427,23.109299
916.000000,1,Relaxed,19.122393,-6.072675,4.405192,1.656262,9.959003,-5.640568,21.943522,21.121951
920.000000,1,Relaxed,20.716551,-4.151795,2.669362,1.188444,7.508584,-10.977393,19.044156,15.001013
924.000000,1,Relaxed,27.106638,-6.522664,1.216787,2.208019,12.816665,-12.842917,11.935309,2.411277
928.000000,1,Relaxed,29.785424,-7.316353,6.782133,3.287598,17.017503,-16.452514,14.702991,-4.824899
932.000000,1,Relaxed,21.711750,-2.780004,6.874805,9.951081,21.040536,-21.282743,3.886781,-12.853459
936.000000,1,Relaxed,21.635406,3.830779,6.506938,12.199572,16.951652,-22.945921,-5.280222,-14.968466
940.000000,1,Relaxed,18.989902,5.568252,8.909054,16.611275,13.060153,-24.172453,-8.894739,-16.224640
944.000000,1,Relaxed,16.307972,10.020697,-1.847210,12.706473,5.920928,-29.048298,-18.978723,-17.999431
948.000000,1,Relaxed,5.900285,11.843940,-2.437406,15.248822,4.790429,-23.969217,-20.873238,-20.640277
952.000000,1,Relaxed,4.070255,21.248823,-9.800055,15.979071,-0.620727,-19.635131,-17.307188,-21.597113
956.000000,1,Relaxed,4.249774,18.945899,-9.912631,20.933720,-4.868422,-20.224226,-26.296232,-18.143546
960.000000,1,Relaxed,2.196322,15.988784,-12.982019,14.771076,-6.536468,-11.321496,-30.846848,-11.778378
964.000000,1,Relaxed,-0.990375,12.664029,-11.936009,14.373609,-5.617116,-1.682566,-29.598696,-9.747590
968.000000,1,Relaxed,-2.468414,8.697981,-12.072506,10.498433,-11.490221,0.592657,-32.127995,-6.034780
972.000000,1,Relaxed,-7.341408,4.384030,-9.659283,2.367406,-12.605434,-1.329535,-27.789871,2.925203
976.000000,1,Relaxed,-7.773411,1.186210,-5.652005,-6.479604,-9.084007,6.354747,-28.131485,7.948164
980.000000,1,Relaxed,-10.254952,-4.131117,-3.670566,-11.782225,-10.475597,6.911941,-19.865834,8.928691
984.000000,1,Relaxed,-10.429030,-3.397597,-4.486985,-10.170498,-6.680687,13.131582,-14.800563,17.026980
988.000000,1,Relaxed,-11.422056,-11.816284,-3.648707,-14.828527,-4.235597,11.736132,0.726191,21.653232
992.000000,1,Relaxed,-7.677381,-15.965126,2.807578,-11.145341,-3.355069,11.555109,3.196448,28.010125
996.000000,1,Relaxed,-5.028302,-14.479710,9.808952,-12.028776,-3.867497,7.697024,7.028570,24.150242
1000.000000,1,Relaxed,-5.756788,-17.198672,6.733737,-12.353836,-1.839231,6.660346,11.153270,29.129211
1004.000000,1,Relaxed,-4.051612,-12.136482,10.846505,-12.051212,-0.298623,4.961181,14.836222,28.312106
1008.000000,1,Relaxed,-1.748948,-16.913686,8.466219,-12.828820,2.265893,5.600533,17.857132,23.618075
1012.000000,1,Relaxed,2.717061,-15.590780,12.468006,-9.618101,1.554400,2.845047,19.429530,14.406364
1016.000000,1,Relaxed,6.099467,-15.858482,16.701157,-3.116953,10.216583,4.294150,23.679917,6.709140
1020.000000,1,Relaxed,11.509488,-18.207705,19.438475,-3.538951,9.530176,1.213219,16.568549,1.263417
1024.000000,1,Relaxed,11.754440,-18.093478,20.180021,-5.906690,9.922905,-5.294796,9.499720,-6.096395
1028.000000,1,Relaxed,15.298475,-15.248284,21.689418,3.076583,10.666220,-3.676431,6.862072,-14.603591
1032.000000,1,Relaxed,12.235929,-10.921106,23.856235,2.424179,10.752103,-9.726361,6.423548,-18.361066
1036.000000,1,Relaxed,7.240076,-7.808291,19.745560,8.697213,7.348603,-11.366888,-0.001603,-28.951344
1040.000000,1,Relaxed,2.293584,-4.701205,14.659399,14.610010,2.717487,-10.061087,-3.024205,-37.487493
1044.000000,1,Relaxed,-0.476005,1.325817,10.458733,16.727421,1.711494,-9.156551,-3.425023,-36.797140
1048.000000,1,Relaxed,2.810876,0.883847,3.688065,23.303162,-3.748208,-5.753298,-11.028231,-34.986766
1052.000000,1,Relaxed,-0.230281,3.049865,-0.621296,24.116964,-10.677850,-7.584211,-12.851601,-32.639605
1056.000000,1,Relaxed,-1.676238,6.659655,-1.811522,26.253220,-17.179745,-3.151891,-19.938956,-28.763219
1060.000000,1,Relaxed,-8.662876,11.004724,-8.051478,17.804098,-19.999370,-0.901687,-20.133456,-21.802142
1064.000000,1,Relaxed,-5.351711,8.849626,-15.101883,16.289390,-23.217340,5.968509,-22.152089,-21.833640
1068.000000,1,Relaxed,-6.677418,5.586935,-16.518854,14.677540,-25.166144,11.728240,-19.940809,-14.879596
1072.000000,1,Relaxed,-8.721239,0.210543,-12.852346,10.029227,-18.623999,17.239176,-15.037853,-5.016932
1076.000000,1,Relaxed,-6.352657,-1.748417,-12.615088,8.685200,-19.223171,17.660209,-12.007763,-5.540522
1080.000000,1,Relaxed,-5.063205,-6.907904,-10.313482,0.333122,-13.572879,15.369775,-9.883909,5.498345
1084.000000,1,Relaxed,-6.797188,-7.258338,-5.974090,0.280866,-18.227998,14.227224,-5.315702,15.441948
1088.000000,1,Relaxed,-8.636714,-4.274285,-4.952900,-3.216196,-14.080952,13.834820,5.090755,21.740047
1092.000000,1,Relaxed,-8.065683,-3.346536,-3.269009,-8.735367,-12.722384,10.201696,9.782709,24.881032
1096.000000,1,Relaxed,-6.534390,-6.735157,-9.846793,-8.694239,-9.967255,7.607589,14.266001,27.106287
1100.000000,1,Relaxed,-2.612401,-7.279213,-4.415620,-6.945915,-4.726028,4.138008,19.172805,24.588392
1104.000000,1,Relaxed,3.935943,-6.105277,-0.042291,-10.543356,4.551333,3.845429,26.016995,29.678458
1108.000000,1,Relaxed,-0.057508,-2.171349,0.754366,-9.670996,5.616583,7.964993,24.957792,23.671814
1112.000000,1,Relaxed,7.933159,-7.223813,7.285676,-4.467535,6.972938,-1.851643,22.537803,20.796764
1116.000000,1,Relaxed,10.524940,-0.420224,9.716971,-7.609693,7.435003,-1.171180,19.821449,18.241285
1120.000000,1,Relaxed,11.005839,-2.413605,12.762656,-9.738270,10.601220,-6.836652,16.983446,8.817279
1124.000000,1,Relaxed,9.306010,-0.617133,17.358384,-8.586470,16.801387,-8.881422,13.255596,1.674903
1128.000000,1,Relaxed,6.295378,0.458066,20.137185,-10.494212,20.242636,-13.238480,12.319899,-6.220327
1132.000000,1,Relaxed,9.881255,2.154065,15.988218,-2.433830,22.577190,-13.177548,7.523767,-10.886649
1136.000000,1,Relaxed,10.469110,5.108645,18.353627,-0.866840,16.730832,-12.918930,-0.111362,-19.322007
1140.000000,1,Relaxed,-0.498636,10.205726,15.962670,3.843686,16.607020,-15.644248,-4.663222,-25.171623
1144.000000,1,Relaxed,-1.382454,13.314808,11.693627,5.099137,13.201514,-17.691580,-12.551838,-24.496338
1148.000000,1,Relaxed,-8.802980,15.019605,6.986522,5.981863,8.946055,-17.814833,-15.014088,-28.235242
1152.000000,1,Relaxed,-11.473951,21.306791,1.717294,7.541824,-2.769669,-13.244593,-17.270379,-24.681881
1156.000000,1,Relaxed,-15.047901,20.432370,-0.051274,4.696281,-4.420485,-7.598832,-19.489200,-25.145990
1160.000000,1,Relaxed,-14.540569,17.495590,-3.828349,8.100743,-7.552108,3.104399,-21.276150,-21.292632
1164.000000,1,Relaxed,-12.240285,8.848799,-8.156712,5.764696,-7.948603,10.160542,-22.636722,-20.396024
1168.000000,1,Relaxed,-14.893806,9.309825,-2.938152,3.211540,-12.785855,12.155241,-19.825651,-15.010698
1172.000000,1,Relaxed,-14.105977,7.489846,-1.798343,0.001883,-8.855975,14.330867,-23.205621,-7.552064
1176.000000,1,Relaxed,-16.921487,0.950708,-3.525452,-13.048573,-13.150983,20.753034,-18.528694,3.850107
1180.000000,1,Relaxed,-19.720448,-1.386850,-2.858803,-14.820267,-12.777679,18.996481,-12.035051,2.315073
1184.000000,1,Relaxed,-17.095281,-6.522857,-4.287706,-17.446539,-6.884666,24.163491,-3.862723,10.398278
1188.000000,1,Relaxed,-17.873348,-6.232738,-2.000494,-15.168476,-7.147677,25.956392,1.407995,12.200551
1192.000000,1,Relaxed,-14.113089,-7.424362,0.490934,-14.313874,-4.460670,21.297639,15.162351,17.263251
1196.000000,1,Relaxed,-13.484926,-14.116083,-2.277521,-14.430390,-6.419539,18.164074,15.737140,20.918454
1200.000000,1,Relaxed,-10.465127,-4.616143,1.901020,-12.154434,-7.629477,15.058140,22.669037,26.008428
1204.000000,1,Relaxed,-9.398027,-10.381119,0.909971,-15.811121,-4.740502,17.809629,23.681576,23.566931
1208.000000,1,Relaxed,-1.887566,-5.961495,0.770782,-13.294839,4.187819,17.704110,31.064336,20.426856
1212.000000,1,Relaxed,-0.480167,-5.879365,7.590507,-9.734707,5.635154,12.118886,29.613952,17.224118
1216.000000,1,Relaxed,9.354464,-10.098514,7.730339,-5.188368,9.430116,8.273735,27.841230,6.971429
1220.000000,1,Relaxed,11.730951,-7.013704,9.063064,-4.692957,10.487076,3.925844,27.347931,3.827570
1224.000000,1,Relaxed,16.403605,-6.467779,10.421042,-0.622523,16.441253,0.954285,21.031674,-2.615449
1228.000000,1,Relaxed,15.479695,-1.143386,13.245060,1.044094,12.521390,-4.993408,16.014523,-8.617108
1232.000000,1,Relaxed,16.220018,3.571903,12.865105,2.123541,11.267876,-9.011985,12.093356,-16.966561
1236.000000,1,Relaxed,11.908812,10.449139,4.522455,8.216357,11.555321,-11.469949,8.431193,-23.586626
1240.000000,1,Relaxed,5.008480,11.724886,0.401763,9.835212,14.627241,-14.096671,1.031756,-28.921629
1244.000000,1,Relaxed,6.168488,13.927731,-2.528504,16.308922,12.375935,-12.887192,-3.258884,-30.453121
1248.000000,1,Relaxed,2.730845,19.551864,-11.322950,17.726782,4.615410,-12.041594,-5.890417,-29.383486
1252.000000,1,Relaxed,2.826833,22.233498,-10.611604,19.858387,-0.405567,-11.990680,-10.450451,-23.423221
1256.000000,1,Relaxed,4.869216,25.622369,-15.384626,17.340794,-7.733108,-11.100442,-14.019112,-20.083506
1260.000000,1,Relaxed,0.353461,23.775235,-19.175858,14.613317,-8.626058,-5.118761,-22.661249,-13.623738
1264.000000,1,Relaxed,-4.663188,21.360450,-22.909691,11.782845,-10.089886,-4.437932,-22.078313,-7.971386
1268.000000,1,Relaxed,-6.045488,18.756905,-22.224730,5.978043,-7.735872,8.011843,-17.950697,-5.289741
1272.000000,1,Relaxed,-3.283098,14.211658,-17.276569,4.416641,-5.084315,8.907159,-14.268595,0.632418
1276.000000,1,Relaxed,-5.131246,12.544965,-19.416276,-2.673192,-5.089134,11.390661,-17.628143,8.768309
1280.000000,1,Relaxed,-4.665298,9.190693,-15.407252,-4.993856,-2.081914,11.864229,-13.671171,14.661271
1284.000000,1,Relaxed,-4.437897,4.670136,-9.104168,-12.876505,-3.427204,8.576107,-6.647828,21.474584
1288.000000,1,Relaxed,-4.292979,7.114643,-11.831771,-13.623998,0.424055,7.016944,-2.588808,32.483407
1292.000000,1,Relaxed,-5.529338,6.764100,-5.906421,-16.903000,0.252084,5.085938,3.581488,29.700383
1296.000000,1,Relaxed,-9.766488,3.424509,-9.002747,-14.188104,4.865722,5.233666,11.963139,38.328069
1300.000000,1,Relaxed,-1.640751,-0.960761,-3.901642,-18.618679,8.208413,6.445722,20.037939,35.066996
1304.000000,1,Relaxed,1.726421,1.601515,-2.090145,-17.501486,11.473021,3.096187,17.940223,35.947001
1308.000000,1,Relaxed,6.524636,-2.444891,2.535412,-13.912649,16.262876,3.204057,24.536330,34.046087
1312.000000,1,Relaxed,12.409931,-1.282690,6.732645,-14.499306,13.694276,-6.620051,18.826655,29.735944
1316.000000,1,Relaxed,7.088305,-1.188341,8.452254,-14.665173,16.112160,-6.469302,17.758231,25.412779
1320.000000,1,Relaxed,10.670863,-2.287894,11.086444,-10.667565,19.482159,-5.458311,17.379636,11.493093
1324.000000,1,Relaxed,13.189713,-4.351517,13.908678,-10.034645,19.774294,-8.776803,12.360374,4.084955
1328.000000,1,Relaxed,9.240214,-0.718622,13.761500,-6.819877,24.292688,-11.142471,8.128573,-6.302051
1332.000000,1,Relaxed,15.518060,-2.719923,14.261671,-1.636051,24.705872,-13.446674,5.725813,-15.917201
1336.000000,1,Relaxed,11.937349,7.310845,13.569365,1.991314,25.202389,-21.521861,-1.777257,-20.065688
1340.000000,1,Relaxed,9.379353,2.347899,13.016972,9.214245,17.325528,-19.488403,-6.195599,-19.108116
1344.000000,1,Relaxed,1.865662,5.667207,8.912850,6.883193,12.479541,-14.905961,-12.418833,-25.365335
1348.000000,1,Relaxed,0.651615,12.385814,-0.285540,8.724838,4.701113,-15.673301,-13.787555,-21.904863
1352.000000,1,Relaxed,-0.959732,16.005636,-6.072823,16.112788,-2.420271,-11.594691,-20.929689,-21.646581
1356.000000,1,Relaxed,-3.125614,12.183889,-9.220208,16.170836,-5.561561,-10.367986,-22.246543,-18.484962
1360.000000,1,Relaxed,-2.966027,10.150365,-10.218512,20.942877,-7.909035,-3.123156,-24.541074,-17.256985
1364.000000,1,Relaxed,-2.808563,1.636892,-11.632662,14.309474,-9.755614,8.155528,-22.649273,-10.758557
1368.000000,1,Relaxed,-5.293754,1.061538,-15.509664,14.040120,-14.755164,11.064134,-25.562370,-8.066423
1372.000000,1,Relaxed,-4.446918,-1.897381,-13.096996,10.176964,-19.767153,9.511554,-22.505081,-1.781703
1376.000000,1,Relaxed,-5.329881,-6.180402,-15.415570,2.001540,-20.903152,12.600660,-19.765306,3.848550
1380.000000,1,Relaxed,-4.859675,-6.033735,-15.357192,-2.525790,-17.270112,16.091484,-8.417351,8.155593
1384.000000,1,Relaxed,-3.018790,-15.063267,-11.332160,-1.346920,-18.577498,15.828158,-5.413270,13.456944
1388.000000,1,Relaxed,-4.852976,-16.261828,-15.164791,-1.267459,-7.005399,14.143518,1.884640,19.909330
1392.000000,1,Relaxed,0.294230,-15.472219,-12.805095,-4.261799,-7.114233,14.805814,11.281556,22.425695
1396.000000,1,Relaxed,6.521424,-15.031632,-9.463485,-3.666834,-8.738790,11.703010,18.770124,24.536709
1400.000000,1,Relaxed,4.336058,-10.904353,-6.528716,-7.218304,-9.114843,7.875135,18.888581,30.358955
1404.000000,1,Relaxed,6.577418,-9.618058,-5.128906,-0.967321,-2.903031,6.100075,22.387773,28.487551
1408.000000,1,Relaxed,12.400720,-7.490699,-3.906818,-1.009189,-3.280681,-0.587866,27.474081,26.437551
1412.000000,1,Relaxed,18.904766,-7.454706,-0.024789,1.903141,2.021669,0.039385,27.139030,22.691942
1416.000000,1,Relaxed,22.475888,-6.867483,-2.951765,1.180100,7.558395,-4.167340,24.305980,16.116707
1420.000000,1,Relaxed,28.615182,-9.077498,6.413702,3.667881,13.342201,-7.817687,18.314234,12.687622
1424.000000,1,Relaxed,28.673228,-6.885300,6.997211,5.662386,16.926404,-12.413952,15.092939,4.046270
1428.000000,1,Relaxed,27.501645,-2.771905,11.419371,6.215285,18.990873,-18.165880,5.484063,0.604117
1432.000000,1,Relaxed,24.374830,1.411283,6.828542,9.178007,18.060342,-27.652317,0.921773,-7.824394
1436.000000,1,Relaxed,24.564565,4.707900,6.104407,11.983683,14.328306,-22.455241,-0.414922,-14.871704
1440.000000,1,Relaxed,15.925908,7.659466,2.140517,18.004986,14.375226,-24.633426,-5.258364,-19.390926
1444.000000,1,Relaxed,9.170282,8.570258,0.633089,16.898658,8.687743,-26.857658,-11.238312,-24.624291
1448.000000,1,Relaxed,13.841490,13.237904,-6.736471,22.442389,3.028375,-21.338764,-20.815707,-20.877820
1452.000000,1,Relaxed,7.203389,14.930990,-5.303612,19.790949,0.325126,-21.971017,-25.020228,-17.379053
1456.000000,1,Relaxed,5.050761,15.827711,-10.391593,16.230566,-5.894351,-19.772345,-29.304010,-13.581274
1460.000000,1,Relaxed,3.474506,15.683058,-10.510343,14.735133,-10.548789,-15.800817,-31.659113,-14.225911
1464.000000,1,Relaxed,-5.829360,11.822605,-11.991716,7.806127,-13.617781,-6.275719,-34.411377,-10.184019
1468.000000,1,Relaxed,-6.925888,11.536787,-10.715023,7.437759,-12.401083,-1.971784,-30.814355,-3.651922
1472.000000,1,Relaxed,-7.894827,4.220641,-12.267969,2.522399,-8.789336,2.452089,-24.139463,4.939608
1476.000000,1,Relaxed,-6.451307,-3.166714,-6.416858,-4.031390,-5.410699,9.693222,-23.638442,7.789220
1480.000000,1,Relaxed,-5.303257,-4.505614,-2.350625,-1.777022,-11.859137,8.546336,-19.804564,11.565521
1484.000000,1,Relaxed,-7.435103,-10.351696,-5.193665,-11.086101,-10.907099,9.377379,-16.670258,16.054320
1488.000000,1,Relaxed,-9.899431,-13.502896,1.795238,-16.363834,-9.632059,11.038820,-11.054506,22.330245
1492.000000,1,Relaxed,-13.712873,-9.468250,3.650534,-12.383519,-5.674869,7.670034,-2.776183,24.830713
1496.000000,1,Relaxed,-14.105686,-14.117628,1.563382,-15.181438,-5.968294,7.593514,3.643236,28.777016
1500.000000,1,Relaxed,-6.479189,-16.394766,0.899835,-9.929731,-4.471639,9.293615,13.570839,28.307275
1504.000000,1,Relaxed,-3.621846,-17.831919,8.654817,-11.108258,1.407262,5.521745,18.751071,22.961771
1508.000000,1,Relaxed,2.535064,-16.328069,9.349128,-8.156661,4.439675,7.340636,17.946997,24.332262
1512.000000,1,Relaxed,6.768647,-17.528679,15.713391,-4.768915,3.983609,1.941267,19.478745,19.892319
1516.000000,1,Relaxed,8.017400,-18.503775,18.135800,-3.828668,3.261246,1.630499,20.019987,9.538038
1520.000000,1,Relaxed,10.291333,-14.403956,20.141240,-2.949630,6.824658,-0.946211,18.863566,3.166600
1524.000000,1,Relaxed,9.809839,-16.587425,17.866214,-2.334915,8.219643,-1.859218,14.650159,-5.229643
1528.000000,1,Relaxed,11.246262,-11.476218,18.645783,3.404523,10.572519,-7.092979,10.327705,-14.422470
1532.000000,1,Relaxed,9.372301,-13.347224,20.553847,9.049238,10.463056,-7.001032,8.171221,-25.808496
1536.000000,1,Relaxed,9.463332,-14.271709,20.810866,12.082562,10.711433,-12.860139,4.022589,-27.929892
1540.000000,1,Relaxed,7.062675,-4.457735,19.651218,14.053434,4.221536,-13.053711,-8.268217,-30.506523
1544.000000,1,Relaxed,3.929284,3.759948,6.877442,13.666607,-0.273748,-17.720988,-5.935565,-30.167386
1548.000000,1,Relaxed,-2.264465,7.644278,4.578732,20.393759,-5.302782,-14.274766,-13.470604,-34.822813
1552.000000,1,Relaxed,-2.430808,11.206257,-4.443100,21.901074,-11.684770,-5.627313,-16.165269,-33.769214
1556.000000,1,Relaxed,-4.480328,6.090361,-5.801948,22.391610,-17.165101,-2.979283,-18.059516,-30.961101
1560.000000,1,Relaxed,-4.122509,8.365781,-13.222521,25.216187,-16.586210,0.747708,-18.472859,-25.743425
1564.000000,1,Relaxed,-2.358799,2.834478,-13.437332,17.349612,-19.411840,4.629081,-22.480168,-19.730511
1568.000000,1,Relaxed,-8.561545,3.174023,-12.318257,19.410768,-16.333129,7.731634,-21.183916,-11.171868
1572.000000,1,Relaxed,-8.216663,-0.718507,-10.705837,10.573319,-21.718331,12.041423,-18.615122,-7.407851
1576.000000,1,Relaxed,-10.045047,-0.937850,-10.628650,5.033752,-20.746304,12.255764,-16.118405,1.818714
1580.000000,1,Relaxed,-13.047641,-3.836381,-11.204553,-1.787097,-19.530987,17.969128,-10.092683,5.046787
1584.000000,1,Relaxed,-9.931785,-4.089291,-11.435023,-7.470959,-16.449014,16.333250,-4.024557,11.766445
1588.000000,1,Relaxed,-5.689330,-6.562866,-11.311384,-5.369036,-12.371468,16.630134,5.455021,21.134502
1592.000000,1,Relaxed,-5.451194,-7.781667,-3.825534,-4.800697,-7.960553,10.716388,12.099708,20.181428
1596.000000,1,Relaxed,-2.505944,-9.554024,-2.957344,-5.412132,-5.739236,8.347969,16.235965,26.543374
1600.000000,1,Relaxed,0.465054,-5.507173,0.875332,-9.166040,-3.079352,5.834630,18.533274,26.961876
1604.000000,1,Relaxed,2.242091,-4.763093,-1.418826,-14.360500,-2.129989,2.803904,22.689228,30.006877
1608.000000,1,Relaxed,2.123233,-0.580722,-0.916257,-12.481414,0.809885,1.285973,24.858100,29.370083
1612.000000,1,Relaxed,9.110062,0.220131,5.299126,-3.560288,6.638088,0.972231,28.932463,22.691804
1616.000000,1,Relaxed,10.788308,-0.469577,11.533041,-8.361001,9.986757,0.557926,24.163559,15.616374
1620.000000,1,Relaxed,11.461522,-4.379255,13.279588,-2.722520,20.151718,-5.338108,17.754211,11.634476
1624.000000,1,Relaxed,12.062199,-7.215483,16.609005,-7.236749,18.358286,-6.754589,11.096680,2.993495
1628.000000,1,Relaxed,8.363816,-2.089005,17.964703,-5.175423,22.210933,-11.665266,6.812346,-2.745227
1632.000000,1,Relaxed,6.333099,8.649703,22.983390,-2.395066,19.992305,-14.486073,1.123748,-10.139189
1636.000000,1,Relaxed,3.507174,8.793864,14.140602,-3.462514,18.097042,-19.996237,-2.055385,-24.472656
1640.000000,1,Relaxed,1.876212,10.332266,10.295491,4.123232,14.866427,-18.672631,-8.398902,-24.585323
1644.000000,1,Relaxed,0.327781,16.437483,9.366795,4.831351,10.752545,-16.257566,-8.129125,-29.607597
1648.000000,1,Relaxed,-8.482604,17.353061,2.304637,9.288957,6.507942,-12.205218,-17.342265,-29.275451
1652.000000,1,Relaxed,-7.339842,17.141574,6.294895,9.619217,6.340510,-9.627659,-22.637552,-22.790595
1656.000000,1,Relaxed,-13.216323,18.169480,1.520226,10.267107,-3.411341,-8.037182,-24.119321,-23.502892
1660.000000,1,Relaxed,-13.727523,18.073608,-1.987419,8.732100,-6.959646,-1.191952,-28.029868,-15.366000
1664.000000,1,Relaxed,-17.824029,15.869373,-5.582146,1.719437,-9.396424,3.386249,-28.588256,-17.926204
1668.000000,1,Relaxed,-22.278267,13.916518,-7.769391,2.752776,-13.263784,13.663908,-24.914079,-12.928322
1672.000000,1,Relaxed,-16.150966,6.143378,-8.590501,-4.313822,-10.577203,19.193839,-21.714308,-4.577662
1676.000000,1,Relaxed,-18.389363,1.480098,-5.012063,-4.813504,-10.496254,21.393290,-16.194937,-1.562133
1680.000000,1,Relaxed,-18.464613,-1.943657,-4.744530,-9.543236,-12.721746,21.709875,-12.590398,5.689856
1684.000000,1,Relaxed,-20.651342,-9.223732,0.036321,-16.504723,-10.846207,23.401303,-6.241348,11.025739
1688.000000,1,Relaxed,-20.539781,-6.199495,1.823541,-16.153322,-9.043436,19.771681,2.164069,16.174823
1692.000000,1,Relaxed,-17.520174,-8.366111,2.992430,-16.864189,-10.273167,20.755836,12.025764,19.096130
1696.000000,1,Relaxed,-16.042713,-13.482799,-0.184580,-17.424688,-8.046085,19.786678,20.507511,21.374692
1700.000000,1,Relaxed,-10.802509,-14.290933,0.889082,-12.786497,-4.846309,15.846986,24.401603,22.534405
1704.000000,1,Relaxed,-5.544523,-13.386307,0.683413,-10.255242,3.211274,18.426557,29.112050,24.225359
1708.000000,1,Relaxed,1.903488,-9.912772,4.173052,-7.765127,-1.513019,12.221226,30.051645,19.413531
1712.000000,1,Relaxed,3.495444,-8.599297,9.371895,-5.910431,5.380954,9.282761,30.421026,15.928171
1716.000000,1,Relaxed,4.690510,-5.884291,8.886659,-5.413022,5.574999,5.489487,27.750238,10.164415
1720.000000,1,Relaxed,11.796811,-0.643664,9.910587,-5.475991,7.111212,0.755142,26.983939,6.807997
1724.000000,1,Relaxed,10.455520,-6.156817,7.017562,-2.294709,11.231806,0.482798,18.105817,-2.760383
1728.000000,1,Relaxed,14.935572,-2.320044,7.778047,0.354040,16.537737,-1.982962,18.277221,-15.548410
1732.000000,1,Relaxed,14.691813,1.151660,10.810940,11.768595,18.166532,-7.884853,14.655760,-22.075834
1736.000000,1,Relaxed,13.192554,3.406108,9.566380,7.264329,15.557357,-9.981561,7.695948,-24.505290
1740.000000,1,Relaxed,11.352439,10.229398,2.061736,10.993389,13.316647,-16.209827,-0.605443,-24.892181
1744.000000,1,Relaxed,10.396254,12.536526,0.297974,12.728297,8.656847,-11.214951,-6.907536,-25.975540
1748.000000,1,Relaxed,6.975215,23.539841,-7.807929,19.773104,3.124435,-15.004325,-7.128841,-24.150880
1752.000000,1,Relaxed,0.936320,22.601091,-12.555910,14.963937,-3.298113,-14.710981,-13.917605,-23.956404
1756.000000,1,Relaxed,0.506122,28.627843,-14.840144,19.147383,-3.928745,-10.687742,-19.096109,-18.038281
1760.000000,1,Relaxed,2.167855,22.745570,-18.983573,17.543884,-5.706548,-1.749785,-16.527804,-14.573392
1764.000000,1,Relaxed,-2.117582,22.255702,-19.088906,14.611046,-9.410877,-0.225899,-19.306126,-9.208579
1768.000000,1,Relaxed,-0.691131,18.013422,-15.194312,11.749546,-11.652461,1.110662,-21.583799,0.675298
1772.000000,1,Relaxed,-2.874130,16.462086,-19.073234,5.702644,-13.044391,7.222873,-22.923983,2.366105
1776.000000,1,Relaxed,-4.092112,13.019121,-19.579753,-4.249606,-8.505558,6.061281,-18.812456,11.587962
1780.000000,1,Relaxed,-8.130573,10.582223,-19.171974,-8.637369,-6.023550,10.337445,-10.954849,17.312926
1784.000000,1,Relaxed,-10.265530,6.437408,-16.733382,-16.044344,-5.288252,13.052948,-9.534155,23.408649
1788.000000,1,Relaxed,-10.237018,0.702133,-17.448532,-13.080167,3.238702,11.969730,-2.276047,23.967580
1792.000000,1,Relaxed,-6.356230,0.505061,-9.130724,-15.106625,4.276372,13.710770,5.337989,31.562070
1796.000000,1,Relaxed,-3.324472,-0.396176,-6.798677,-14.892167,7.813519,1.632901,10.727100,36.347702
1800.000000,1,Relaxed,-1.984069,5.934721,-2.252776,-19.447469,6.490775,0.495342,13.257628,38.181501
1804.000000,1,Relaxed,3.698024,1.291175,-1.287238,-15.872516,5.379822,0.354934,18.801737,39.011892
1808.000000,1,Relaxed,4.741803,4.039153,-0.630013,-18.752306,11.932134,4.771400,22.219628,34.929852
1812.000000,1,Relaxed,4.896451,-0.701866,4.984241,-12.446502,16.847686,2.566866,21.362217,27.550249
1816.000000,1,Relaxed,11.989277,-1.628108,8.858023,-12.701167,18.625060,-0.616185,20.438017,21.717617
1820.000000,1,Relaxed,13.408188,-6.390482,9.803433,-10.232648,19.862379,-7.367492,16.481190,12.323123
1824.000000,1,Relaxed,14.287026,-4.728520,14.200040,-4.809153,24.367674,-10.052312,11.395643,5.655079
1828.000000,1,Relaxed,13.936718,-1.337532,13.116089,-4.106650,21.811709,-13.813664,3.674997,-0.417130
1832.000000,1,Relaxed,12.335126,4.797968,14.729592,-0.491187,24.052764,-17.168688,-0.867216,-9.851076
1836.000000,1,Relaxed,7.377375,5.023551,11.649435,3.508087,17.925997,-14.554654,-5.918158,-16.659257
1840.000000,1,Relaxed,7.160259,8.897508,8.244917,2.962238,18.744559,-17.452128,-7.002731,-21.538050
1844.000000,1,Relaxed,0.366417,8.197843,2.042676,12.585057,7.299418,-14.855735,-9.370643,-25.306939
1848.000000,1,Relaxed,1.110840,11.466085,0.011730,11.637894,7.057971,-10.739725,-16.457248,-24.561476
1852.000000,1,Relaxed,4.970876,10.142026,-4.389462,19.076432,3.321191,-13.874801,-17.969114,-20.505060
1856.000000,1,Relaxed,-1.691912,16.632246,-5.778325,16.533369,-8.483166,-7.992429,-24.171012,-20.660250
1860.000000,1,Relaxed,-1.727182,10.531042,-10.015459,13.317793,-13.103815,-5.548185,-26.976887,-19.161521
1864.000000,1,Relaxed,-6.241145,7.243181,-13.623440,13.723956,-16.924648,2.803110,-25.837876,-12.841532
1868.000000,1,Relaxed,-5.316216,1.968185,-15.741188,12.466304,-18.002809,8.787308,-24.521762,-8.145834
1872.000000,1,Relaxed,-5.055652,4.039703,-18.375361,10.642113,-15.234530,13.056776,-17.850101,-2.680118
1876.000000,1,Relaxed,-3.621845,-3.769285,-15.214917,6.449849,-17.453549,16.696971,-15.759562,4.894627
1880.000000,1,Relaxed,-4.336622,-9.845778,-13.154180,2.399053,-14.761043,17.081688,-9.365430,5.134056
1884.000000,1,Relaxed,-2.439369,-8.706508,-11.465581,-0.529143,-13.319722,15.697315,-6.230542,18.384296
1888.000000,1,Relaxed,-5.271527,-10.067162,-9.404981,-3.225729,-14.172500,15.424342,0.560047,24.963032
1892.000000,1,Relaxed,-1.083946,-7.002170,-6.773584,-3.245551,-14.365150,10.725022,12.242301,26.335710
1896.000000,1,Relaxed,2.604384,-14.160981,-8.717833,-3.108345,-7.927323,11.673070,12.053726,28.364308
1900.000000,1,Relaxed,5.342650,-12.691548,-11.949737,-0.103886,-5.086889,8.301982,23.593469,27.558282
1904.000000,1,Relaxed,9.032450,-13.986768,-5.832779,-2.704020,-4.573372,5.886250,28.037619,28.363329
1908.000000,1,Relaxed,15.681421,-16.311185,-1.366510,2.491762,-1.339102,1.776189,27.147567,29.052026
1912.000000,1,Relaxed,18.551995,-7.878543,-0.138479,1.019130,2.125171,-2.306740,23.124221,26.206871
1916.000000,1,Relaxed,23.827663,-7.869024,5.356610,3.996717,7.344840,-3.285983,23.294956,21.150857
1920.000000,1,Relaxed,19.493954,-4.172983,4.111605,6.287975,9.582282,-10.675196,16.338297,13.774687
1924.000000,1,Relaxed,22.995541,-0.171931,2.535672,3.265227,14.399228,-14.908504,12.349985,6.329166
1928.000000,1,Relaxed,20.214899,-4.547907,7.899283,7.724586,15.885921,-13.226456,9.143461,-1.621967
1932.000000,1,Relaxed,21.273272,-2.315502,8.710143,12.856342,16.403950,-19.982950,3.387869,-11.943885
1936.000000,1,Relaxed,25.295405,2.528373,7.397708,9.937393,18.645242,-23.028063,-4.121728,-13.289633
1940.000000,1,Relaxed,20.280194,8.864025,5.355666,14.271417,11.609794,-27.895578,-6.905392,-14.287675
1944.000000,1,Relaxed,11.581896,10.511376,0.244769,16.864431,7.912517,-24.605590,-16.559359,-19.291763
1948.000000,1,Relaxed,5.026511,14.459482,-1.498245,11.632721,-0.484256,-26.576197,-19.686751,-16.314268
1952.000000,1,Relaxed,-1.223498,20.091415,-7.406519,16.833953,-2.648062,-19.288294,-26.231961,-20.489536
1956.000000,1,Relaxed,1.740079,18.284000,-10.899278,21.249974,-2.754507,-19.528990,-26.390448,-16.958333
1960.000000,1,Relaxed,6.286807,10.590525,-12.361490,19.503421,-8.665375,-12.245943,-31.214732,-14.565136
1964.000000,1,Relaxed,0.738103,8.507523,-14.494659,14.973073,-7.459862,-3.054870,-32.917535,-4.935009
1968.000000,1,Relaxed,-3.226312,10.775501,-11.456006,11.285783,-15.362592,-1.054822,-31.453875,2.126080
1972.000000,1,Relaxed,-3.580655,5.903743,-12.026660,4.040946,-13.263307,6.074305,-28.303492,4.691795
1976.000000,1,Relaxed,-10.350985,0.215277,-5.849663,-1.676340,-13.155897,3.619727,-26.365688,12.089193
1980.000000,1,Relaxed,-10.261636,-3.392146,-9.103229,-8.758647,-8.368970,8.041394,-20.278748,17.109256
1984.000000,1,Relaxed,-10.652038,-8.417215,-4.643143,-10.744139,-11.587415,14.679124,-13.651513,17.729617
1988.000000,1,Relaxed,-10.454039,-11.234525,-0.566632,-12.670173,-4.928361,9.208276,-6.023901,22.129082
1992.000000,1,Relaxed,-7.022097,-17.533211,3.885573,-8.512916,-2.403899,7.505480,2.895229,26.981705
1996.000000,1,Relaxed,-6.360510,-16.873038,3.103022,-8.337277,-5.849317,6.300887,5.321499,26.349807
2000.000000,1,Relaxed,-4.739877,-14.412738,6.961467,-9.483669,-5.486872,7.400564,12.540875,29.103975
2004.000000,1,Relaxed,-6.153567,-15.128160,11.832105,-12.958503,-3.579516,1.995830,17.552707,31.875318
2008.000000,1,Relaxed,-0.094140,-14.232107,13.950021,-12.029477,-4.106893,6.361509,16.838170,22.785786
2012.000000,1,Relaxed,5.927441,-18.837528,15.107101,-4.286132,1.771773,5.369492,18.764034,19.330244
2016.000000,1,Relaxed,5.542150,-17.063029,16.723021,-2.644648,8.913736,6.461461,18.383109,11.084843
2020.000000,1,Relaxed,9.028167,-16.582212,17.225315,-0.821404,10.044260,2.073503,13.895754,1.935323
2024.000000,1,Relaxed,14.534837,-17.098207,23.747421,-0.884660,9.870557,-2.213702,11.980340,-4.644045
2028.000000,1,Relaxed,10.630907,-14.782382,23.595429,3.406673,9.980345,-3.824018,10.962201,-8.794550
2032.000000,1,Relaxed,11.785525,-10.792002,23.609349,3.089659,8.999250,-9.175937,1.646970,-18.656702
2036.000000,1,Relaxed,5.459186,-8.117902,16.710973,9.781786,6.558395,-13.490444,2.328211,-25.554275
2040.000000,1,Relaxed,6.592883,-3.740838,11.908991,15.320033,0.859678,-14.759237,-4.443385,-29.326980
2044.000000,1,Relaxed,1.862109,1.090147,7.804423,20.681023,1.848235,-11.831498,-2.352240,-35.761028
2048.000000,1,Relaxed,0.782600,1.065662,4.542117,23.440825,-2.654179,-9.043491,-11.648368,-36.878915
2052.000000,1,Relaxed,2.198450,3.043346,1.624728,21.744551,-9.437876,-7.527121,-15.210407,-28.629225
2056.000000,1,Relaxed,-3.548022,6.907949,-5.030303,24.159295,-18.711577,-10.370570,-21.224704,
2060.000000,1,Relaxed,-7.256644,9.404571,-11.517215,24.880967,-24.123730,-2.465969,-23.456878,-21.854625
2064.000000,1,Relaxed,-8.317142,6.948966,-9.235088,15.228878,-24.970376,4.131218,-19.484827,-19.985120
2068.000000,1,Relaxed,-6.907735,5.633156,-8.815450,13.860094,-23.559849,11.137002,-19.295081,-12.116252
2072.000000,1,Relaxed,-9.870747,1.966235,-12.278465,13.871271,-25.122894,17.132403,-15.401986,-9.166777
2076.000000,1,Relaxed,-4.386211,-0.923526,-14.240382,8.236106,-18.542128,15.709927,-16.911529,-0.348987
2080.000000,1,Relaxed,-6.932409,-2.581326,-11.133665,6.765467,-15.452351,13.557933,-9.014950,5.434447
2084.000000,1,Relaxed,-4.883391,-4.556371,-6.422403,-4.728812,-15.540453,10.995157,-7.081889,12.348533
2088.000000,1,Relaxed,-13.130440,-7.892668,-3.105089,-8.858475,-16.344210,14.430082,-1.543700,19.820658
2092.000000,1,Relaxed,-9.734026,-6.713774,-7.665783,-6.282834,-14.184952,9.105638,8.325101,20.084036
2096.000000,1,Relaxed,-9.718182,-4.735814,-5.538570,-11.635999,-8.691529,10.567751,14.753949,24.520725
2100.000000,1,Relaxed,-4.897403,-6.284766,-3.831708,-9.180844,-5.334947,10.311254,19.839338,29.335467
2104.000000,1,Relaxed,1.148282,-8.414913,1.001324,-7.771580,0.619359,2.978312,24.661095,28.722691
2108.000000,1,Relaxed,4.364774,-6.323900,3.829124,-4.459639,5.255375,4.224686,25.738027,25.013848
2112.000000,1,Relaxed,7.534968,-4.159937,6.181543,-5.249780,9.461274,1.169546,25.073415,25.258628
2116.000000,1,Relaxed,9.475873,-2.140142,13.358921,-6.754825,7.548241,-3.816849,16.485023,16.789382
2120.000000,1,Relaxed,10.430439,-0.113983,15.692278,-9.614769,13.206540,-12.712308,18.591278,12.322465
2124.000000,1,Relaxed,7.630083,3.186213,14.665723,-5.716741,15.865888,-11.365551,16.418193,2.100395
2128.000000,1,Relaxed,10.807360,1.761849,17.635482,2.778083,20.030475,-13.673718,8.469882,-6.667035
2132.000000,1,Relaxed,10.122980,8.113817,17.405534,-0.235002,23.471090,-13.015765,0.963164,-13.565037
2136.000000,1,Relaxed,7.344438,6.691035,16.351379,1.260294,21.937719,-16.752198,-4.641821,-14.015578
2140.000000,1,Relaxed,3.229697,9.783626,17.644987,-0.179948,18.302864,-25.030580,-9.030770,-24.402496
2144.000000,1,Relaxed,-2.982118,14.564692,12.445039,2.228868,10.712195,-19.716709,-9.229661,-24.351720
2148.000000,1,Relaxed,-4.552989,18.627272,7.925543,4.782341,4.194704,-14.790751,-17.044388,-23.969726
2152.000000,1,Relaxed,-12.015035,20.785987,4.874815,6.049451,-0.772723,-11.908701,-21.192127,-27.398979
2156.000000,1,Relaxed,-14.058127,23.247133,-4.770832,8.013035,-7.573913,-6.475195,-23.571198,-27.434976
2160.000000,1,Relaxed,-15.892856,14.284341,-6.367615,10.816159,-4.451350,-1.055659,-26.421342,-22.272407
2164.000000,1,Relaxed,-17.431304,13.812755,-4.946407,7.327345,-10.171457,3.905785,-22.812312,-14.297579
2168.000000,1,Relaxed,-19.086699,9.290539,-4.879719,0.717026,-10.622526,10.856245,-24.581005,-10.180326
2172.000000,1,Relaxed,-19.899039,3.157394,-1.233985,-6.351148,-12.150875,14.168459,-18.578110,-4.003883
2176.000000,1,Relaxed,-19.980693,4.714862,-3.743064,-6.702369,-17.017341,18.013719,-17.607936,3.182282
2180.000000,1,Relaxed,-20.505202,1.289052,-6.315349,-13.868688,-15.667038,21.474583,-10.586805,3.995485
2184.000000,1,Relaxed,-21.068155,-7.847027,-3.736735,-19.155898,-8.265250,23.359890,-4.245974,9.747525
2188.000000,1,Relaxed,-20.881783,-9.778611,-1.261011,-13.843158,-7.824104,26.348975,2.573791,11.442629
2192.000000,1,Relaxed,-14.580132,-14.569120,2.921681,-12.057480,-7.711998,21.402472,10.041278,19.365237
2196.000000,1,Relaxed,-12.036421,-13.151397,3.353193,-18.595876,-6.460304,15.677327,14.432068,22.441920
2200.000000,1,Relaxed,-11.552972,-7.355709,3.796092,-15.654253,-4.005744,16.569595,23.537076,25.281456
2204.000000,1,Relaxed,-9.956430,-9.332630,3.703035,-13.638378,-2.940933,14.359215,25.147901,21.071400
2208.000000,1,Relaxed,-3.429225,-9.990937,3.587166,-9.566436,-4.408078,13.999935,31.125910,20.231465
2212.000000,1,Relaxed,1.581146,-7.213291,4.113875,-8.554304,6.347940,8.491518,30.860164,13.026668
2216.000000,1,Relaxed,4.210408,-9.005171,8.127311,-5.982250,9.523685,11.523316,28.936711,8.692913
2220.000000,1,Relaxed,11.281366,-8.796459,9.288012,-0.645398,10.845336,5.678521,24.034850,5.596159
2224.000000,1,Relaxed,13.878467,-4.630001,15.765609,-1.339697,10.945931,-0.492762,22.456854,-4.123488
2228.000000,1,Relaxed,11.460099,-4.432819,16.176137,2.567794,16.055620,-6.630976,16.151670,-12.198321
2232.000000,1,Relaxed,12.228228,1.441154,12.990656,1.568428,14.065910,-7.530260,12.985904,-17.091529
2236.000000,1,Relaxed,6.795756,8.504578,7.779714,3.845320,8.468845,-15.366125,4.837831,-25.014831
2240.000000,1,Relaxed,10.071431,13.651495,1.085500,11.532184,8.965770,-9.629006,3.343905,-28.860167
2244.000000,1,Relaxed,8.033190,16.877017,-5.933327,14.742367,13.544519,-14.599629,1.454039,-26.589151
2248.000000,1,Relaxed,3.793159,16.165459,-7.026219,20.001758,4.263314,-9.094382,-5.937707,-29.540143
2252.000000,1,Relaxed,3.802114,23.081933,-9.433122,18.867818,-1.828244,-12.588705,-10.498070,-22.636146
2256.000000,1,Relaxed,-3.772754,22.723557,-13.203162,16.888637,-7.756033,-7.919746,-16.334786,-18.685024
2260.000000,1,Relaxed,-4.045412,28.888551,-17.101777,17.347599,-6.524058,-8.976064,-17.250585,-14.665080
2264.000000,1,Relaxed,-4.675393,21.313781,-19.193091,7.297477,-10.003970,-1.721433,-21.221655,-7.613764
2268.000000,1,Relaxed,-6.996184,22.678277,-23.010315,9.274907,-7.785086,5.610672,-19.418954,-4.172713
2272.000000,1,Relaxed,-2.765047,14.267921,-21.612759,5.978364,-7.693701,9.098688,-18.798130,5.360614
2276.000000,1,Relaxed,0.440019,15.125272,-14.986304,0.616283,-3.469916,11.511134,-17.695710,8.690033
2280.000000,1,Relaxed,-6.543921,8.546198,-13.565146,-7.957502,-6.173558,8.578674,-15.109036,16.293956
2284.000000,1,Relaxed,-7.615698,3.071813,-12.988534,-13.433399,-2.982936,9.301953,-5.369470,23.073959
2288.000000,1,Relaxed,-7.022698,3.330396,-10.056435,-15.844854,-1.357318,10.483124,-3.937469,31.314289
2292.000000,1,Relaxed,-4.425711,5.710207,-8.848460,-19.726139,2.750883,4.881235,6.110127,34.693326
2296.000000,1,Relaxed,-8.540783,5.162299,-8.054540,-19.278222,3.304807,6.014745,11.830564,29.869903
2300.000000,1,Relaxed,-2.674535,0.659505,-5.621445,-15.159608,4.921618,3.751451,18.304903,35.823094
2304.000000,1,Relaxed,4.290879,-1.343395,2.380933,-13.402673,10.185747,3.818526,19.065909,31.304685
2308.000000,1,Relaxed,1.448363,-0.691011,3.205027,-14.945300,10.044148,1.300976,19.500272,32.440088
2312.000000,1,Relaxed,5.659546,-1.157673,9.096198,-10.557468,10.917348,-4.316471,20.280944,29.092933
2316.000000,1,Relaxed,9.400937,-2.983780,7.237208,-11.184407,18.629959,-7.074620,16.035919,22.186182
2320.000000,1,Relaxed,9.834508,-2.023291,10.877568,-9.097880,17.999186,-8.357149,11.295794,15.454657
2324.000000,1,Relaxed,12.645014,-0.834419,15.486725,-9.108665,20.865532,-9.494090,15.152666,6.626850
2328.000000,1,Relaxed,11.887980,0.554793,15.510079,-3.977660,25.497046,-7.191838,6.712611,-5.360429
2332.000000,1,Relaxed,8.006895,2.185638,7.036952,-0.155923,26.979119,-10.965542,1.880063,-13.367920
2336.000000,1,Relaxed,11.211564,2.856241,16.341730,4.884060,22.383232,-15.737650,-2.331324,-18.044589
2340.000000,1,Relaxed,5.500718,5.198631,15.793543,3.064062,19.629148,-19.842209,-5.142694,-25.176296
2344.000000,1,Relaxed,4.515610,9.782207,3.398300,7.821893,10.159949,-19.518921,-16.747023,-25.214172
2348.000000,1,Relaxed,-3.282313,10.133246,5.017469,10.988719,3.437465,-11.410211,-13.568136,-22.423766
2352.000000,1,Relaxed,-5.431468,12.740361,-9.347330,13.717181,-2.131460,-13.534410,-20.356166,-28.085091
2356.000000,1,Relaxed,-3.580951,,-7.168453,17.160543,-9.661823,-6.324970,-20.076384,-24.415957
2360.000000,1,Relaxed,-2.991047,6.605410,-12.354200,17.790953,-8.716224,0.012807,-23.455096,-21.519333
2364.000000,1,Relaxed,-3.545293,6.086700,-17.685763,15.789722,-18.292141,4.305896,-18.926364,-10.737322
2368.000000,1,Relaxed,-8.040615,2.881802,-11.172763,11.624060,-16.920261,6.978985,-22.621747,-9.071811
2372.000000,1,Relaxed,-4.188207,1.717968,-9.324192,6.157394,-17.681864,9.691226,-22.899195,-2.483622
2376.000000,1,Relaxed,-8.215869,-1.206677,-11.881615,4.841376,-20.301007,11.924130,-18.507957,1.905376
2380.000000,1,Relaxed,-6.288271,-5.692400,-12.705586,-0.751167,-18.773036,13.886934,-11.546795,8.875805
2384.000000,1,Relaxed,-9.008153,-9.375776,-14.415505,-5.291024,-11.473446,20.032709,-3.419795,14.393289
2388.000000,1,Relaxed,-2.995331,-13.615604,-15.091690,-3.242200,-9.636288,17.291180,4.998156,17.322290
2392.000000,1,Relaxed,-2.230788,-13.486256,-7.231155,-5.378181,-10.926671,13.235039,10.451115,26.017353
2396.000000,1,Relaxed,-0.178303,-14.736963,-3.352634,-1.803625,-9.651654,9.930903,12.317357,28.510259
2400.000000,1,Relaxed,6.069681,-10.874779,-3.888238,-3.019988,-10.692731,7.187320,18.121543,32.005273
2404.000000,1,Relaxed,7.514427,-8.810811,-9.388576,-3.798172,-4.790529,2.821152,23.366064,29.880214
2408.000000,1,Relaxed,9.567849,-10.537496,-6.852310,2.179184,-2.792174,3.484813,23.246516,28.759344
2412.000000,1,Relaxed,18.908585,-8.777055,-3.107350,-0.602664,-1.112088,-3.456293,26.428037,23.201670
2416.000000,1,Relaxed,20.352561,-10.318969,-1.649297,5.444683,8.056619,-2.124585,23.224686,20.420296
2420.000000,1,Relaxed,24.792967,-10.050740,5.089108,9.693141,12.758829,-8.497072,18.755739,11.337513
2424.000000,1,Relaxed,26.259683,-9.667570,9.373334,8.215232,16.380054,-12.921494,16.287827,5.028204
2428.000000,1,Relaxed,23.331677,-1.190271,8.062327,6.926029,15.229939,-19.065244,4.454103,-2.008843
2432.000000,1,Relaxed,22.952726,3.331039,11.997401,6.090172,13.998371,-24.905811,0.549444,-8.650463
2436.000000,1,Relaxed,17.577128,6.647443,8.265703,7.495426,17.074835,-28.944753,-1.075795,-13.607858
2440.000000,1,Relaxed,14.238711,12.337616,1.541857,12.032315,11.125171,-27.650598,-4.458815,-17.463408
2444.000000,1,Relaxed,14.619415,9.894342,-1.052110,14.941231,10.248990,-23.544491,-7.791614,-22.811937
2448.000000,1,Relaxed,7.259726,18.524240,-6.493120,18.135938,4.373498,-25.037455,-17.100352,-20.709192
2452.000000,1,Relaxed,1.992324,14.728591,-5.056151,20.148652,1.832060,-25.002280,-21.925793,-18.124069
2456.000000,1,Relaxed,6.747218,17.727659,-7.231866,18.713315,-8.405814,-21.580604,-26.541746,-14.267837
2460.000000,1,Relaxed,4.635720,16.273789,-10.208410,15.734505,-11.419219,-15.860818,-28.990827,
2464.000000,1,Relaxed,-4.762338,15.048434,-11.812072,7.837346,-15.323354,-8.866828,-31.503355,-8.430378
2468.000000,1,Relaxed,-9.631778,11.309297,-11.823715,5.342348,-13.894051,-1.455242,-28.682129,-4.751479
2472.000000,1,Relaxed,-6.657229,3.893119,-10.748642,3.049470,-8.731102,5.886585,-26.960915,2.787883
2476.000000,1,Relaxed,-6.787881,2.168454,-6.720226,-1.241194,-11.265929,9.104796,-23.595779,6.090477
2480.000000,1,Relaxed,-7.923121,-5.589702,-2.088981,-2.316454,-8.169353,12.092526,-22.272768,12.660896
2484.000000,1,Relaxed,-12.079271,-8.636537,-1.118146,-10.299533,-6.491840,5.600996,-15.481081,17.103405
2488.000000,1,Relaxed,-10.670075,-12.456020,2.186345,-17.081611,-9.296344,7.121546,-9.003269,23.416806
2492.000000,1,Relaxed,-11.223674,-10.623246,2.342311,-14.122089,-6.408087,9.582571,-2.872460,24.603939
2496.000000,1,Relaxed,-13.867698,-13.262459,1.768941,-13.424190,-5.682705,6.803130,3.530246,28.933194
2500.000000,1,Relaxed,-6.590899,-16.745838,5.349197,-13.164312,-3.974197,9.586116,12.411281,27.745493
2504.000000,1,Relaxed,0.017764,-19.421039,6.640890,-12.884906,0.293641,8.202079,17.299631,25.860125
2508.000000,1,Relaxed,0.543058,-13.224954,13.503204,-4.388013,5.028885,9.241200,19.938081,22.713369
2512.000000,1,Relaxed,3.265164,-18.052363,17.109647,-8.440179,1.571643,4.723484,20.151150,14.999976
2516.000000,1,Relaxed,6.024288,-18.977589,18.591447,-4.547937,1.803307,1.227966,17.321353,11.458740
2520.000000,1,Relaxed,8.561334,-16.847654,19.037321,-4.953374,3.079303,-3.675879,14.303803,2.282277
2524.000000,1,Relaxed,4.442277,-15.681505,19.086801,-1.833154,9.509115,-3.694803,11.154889,-4.952594
2528.000000,1,Relaxed,9.059643,-14.121079,17.706985,4.869236,12.150442,-5.300096,12.313678,-13.052208
2532.000000,1,Relaxed,8.538048,-12.199163,22.105463,7.777102,9.254060,-10.615507,6.379877,-21.287661
2536.000000,1,Relaxed,12.048208,-8.413604,20.244804,9.647591,3.432870,-8.370495,0.346257,-25.222536
2540.000000,1,Relaxed,4.843532,-6.428805,17.759200,15.621922,1.218882,-12.296575,-4.725442,-32.478888
2544.000000,1,Relaxed,4.139584,0.583590,9.812898,14.353918,-2.399597,-14.586781,-10.457601,-34.116195
2548.000000,1,Relaxed,-5.175980,2.770850,8.722036,18.569220,-9.255777,-9.389138,-13.528822,-30.986415
2552.000000,1,Relaxed,-3.797160,6.334169,-2.046518,18.265069,-13.385637,-10.070254,-16.299935,-31.929695
2556.000000,1,Relaxed,-4.815329,6.322145,-8.607095,20.174646,-18.339106,-8.196705,-17.997641,-30.628075
2560.000000,1,Relaxed,-7.137864,4.190954,-12.350447,21.773695,-17.775590,2.668130,-17.868451,-22.230424
2564.000000,1,Relaxed,-5.182179,6.431716,-14.573918,19.939665,-20.790290,3.088604,-19.503995,-18.373603
2568.000000,1,Relaxed,-3.676230,4.126071,-7.092940,11.704113,-21.497007,8.708862,-17.574998,-12.373007
2572.000000,1,Relaxed,-7.803776,3.802706,-6.830280,10.586672,-23.147004,11.254748,-17.290026,-6.147727
2576.000000,1,Relaxed,-12.003629,0.450239,-9.093076,1.722167,-22.216037,12.916478,-12.684133,4.052738
2580.000000,1,Relaxed,-9.961036,-0.911148,-12.984252,0.512798,-20.314244,15.776290,-9.771046,7.312976
2584.000000,1,Relaxed,-11.931998,-9.391283,-6.821721,-5.902142,-19.222944,17.069277,-2.319079,12.462960
2588.000000,1,Relaxed,-9.431088,-6.421859,-8.376508,-8.410246,-12.220128,16.818425,3.070480,19.424883
2592.000000,1,Relaxed,-6.609044,-7.966223,-4.841376,-6.403501,-8.074751,11.118995,11.622997,25.084978
2596.000000,1,Relaxed,-7.883426,-5.585545,1.000071,-9.693667,-5.576353,8.866123,12.921327,28.541964
2600.000000,1,Relaxed,-6.521367,-4.111858,0.845809,-7.340340,-5.657251,1.678987,14.733999,31.612052
2604.000000,1,Relaxed,-1.031808,-5.234408,5.374079,-11.094211,-5.775784,5.884370,23.867328,30.929435
2608.000000,1,Relaxed,-0.372500,-5.307018,3.760002,-10.832840,-0.980785,-1.336093,20.627236,28.702347
2612.000000,1,Relaxed,-0.320999,-3.552640,5.546374,-7.623616,5.331500,-1.161468,24.473154,21.201164
2616.000000,1,Relaxed,10.573596,-1.446234,8.689726,-9.340160,11.925405,-5.895268,19.989146,19.775448
2620.000000,1,Relaxed,12.075247,-1.483782,10.234803,-9.320658,15.502545,-7.872971,20.213799,6.808236
2624.000000,1,Relaxed,10.211858,-4.468877,17.421085,-5.728948,16.114810,-9.799480,15.481084,3.242139
2628.000000,1,Relaxed,7.074338,-0.515284,22.963306,-8.198221,16.942199,-14.748140,8.434506,-6.774029
2632.000000,1,Relaxed,8.158676,4.360546,21.632987,-7.045111,14.171727,-15.147210,4.327949,-11.489133
2636.000000,1,Relaxed,3.294270,8.880905,17.206573,-1.359410,10.184209,-19.102681,-3.009277,-19.592977
2640.000000,1,Relaxed,3.401359,9.107327,10.721198,0.766999,13.775385,-19.963037,-2.469385,-23.897737
2644.000000,1,Relaxed,-3.911433,10.304344,9.643848,0.939222,15.910309,-16.896372,-8.954121,-26.512250
2648.000000,1,Relaxed,-6.585967,13.173929,9.004218,5.884943,10.984388,-11.634303,-16.290842,-29.280863
2652.000000,1,Relaxed,-10.107481,17.258614,5.567551,7.091955,-0.122924,-10.169408,-19.153518,-25.557040
2656.000000,1,Relaxed,-11.154722,16.387100,1.564145,11.236374,-4.385319,-11.338229,-24.067955,-19.731447
2660.000000,1,Relaxed,-15.084612,18.096779,-4.422576,6.109741,-13.180996,-5.078781,-26.753095,-21.548257
2664.000000,1,Relaxed,-16.721011,17.521300,-4.008460,-0.147281,-15.827871,4.691667,-29.287200,-16.598607
2668.000000,1,Relaxed,-21.326361,8.100585,-12.757111,-0.852611,-15.870176,11.830356,-22.760983,-8.826229
2672.000000,1,Relaxed,-20.550205,4.871845,-4.746434,-7.112047,-12.904049,14.293228,-22.851257,-5.741103
2676.000000,1,Relaxed,-19.813881,2.062419,1.358996,-9.006669,-11.975695,20.769630,-21.148081,-0.378025
2680.000000,1,Relaxed,-17.495919,-5.135295,-4.862403,-11.641997,-10.922047,18.894182,-11.913192,7.311762
2684.000000,1,Relaxed,-17.200110,-8.049707,-0.472241,-14.803877,-10.164547,23.818027,-6.544227,9.847066
2688.000000,1,Relaxed,-21.838140,-5.401642,1.138684,-18.127101,-11.903514,21.855636,0.587712,15.599047
2692.000000,1,Relaxed,-20.918884,-8.410219,0.056159,-17.744537,-10.209545,17.333647,3.934415,18.589949
2696.000000,1,Relaxed,-16.733502,-6.263886,2.085084,-16.933616,-10.586371,17.367231,16.013998,20.482814
2700.000000,1,Relaxed,-13.652751,-9.200357,0.923173,-15.211925,-8.186393,16.654175,23.914782,24.086568
2704.000000,1,Relaxed,-6.069530,-12.060880,2.518483,-12.532603,-5.002999,17.039578,27.554983,17.743626
2708.000000,1,Relaxed,-6.950448,-10.042383,7.658122,-9.875135,2.464891,13.554711,31.361359,17.572263
2712.000000,1,Relaxed,0.814849,-8.213968,9.389765,-6.722153,2.717784,7.092794,32.418823,14.119097
2716.000000,1,Relaxed,4.363024,-4.240655,16.948740,-5.834161,1.360015,1.867999,28.183822,14.140609
2720.000000,1,Relaxed,3.301762,-5.673063,10.601960,-5.776639,7.291599,2.562599,26.572632,2.760376
2724.000000,1,Relaxed,7.467892,-3.568472,10.455157,-6.374250,8.319876,0.139494,24.295385,-4.680771
2728.000000,1,Relaxed,9.149401,-2.421879,7.042561,-1.808516,17.558440,-2.654271,16.908701,-14.873143
2732.000000,1,Relaxed,11.792919,1.915991,9.372914,5.790425,14.599305,-6.450890,15.062112,-18.615040
2736.000000,1,Relaxed,13.947661,2.791777,11.004900,11.554305,15.592594,-13.101799,9.951623,-21.019951
2740.000000,1,Relaxed,8.428587,12.168756,2.276683,10.985997,12.358175,-15.058560,0.620060,-24.761525
2744.000000,1,Relaxed,2.693433,16.629716,-4.446466,11.425157,3.263263,-11.457492,-5.664699,-26.046444
2748.000000,1,Relaxed,0.965276,18.045390,-5.768616,14.639983,0.702601,-13.178402,-7.449044,-28.239476
2752.000000,1,Relaxed,1.151025,26.338634,-8.940961,13.820285,-2.035056,-13.685938,-15.129115,-24.197842
2756.000000,1,Relaxed,-3.513779,28.989595,-16.685587,19.393751,-5.617858,-10.505083,-17.518161,-20.482863
2760.000000,1,Relaxed,-3.556008,24.769131,-20.369948,15.891281,-6.909099,-10.503650,-19.324053,-18.051994
2764.000000,1,Relaxed,-1.061936,23.007087,-23.499660,11.066661,-11.360225,1.993428,-19.066406,-8.011836
2768.000000,1,Relaxed,-3.555569,18.242872,-17.212347,7.395808,-8.321836,4.676504,-20.651328,0.189714
2772.000000,1,Relaxed,-3.285021,13.151245,-15.450863,0.660325,-10.882438,3.694370,-18.761007,4.634419
2776.000000,1,Relaxed,-6.507079,10.448199,-20.282429,-2.290000,-8.852552,3.297073,-20.153956,13.230416
2780.000000,1,Relaxed,-6.822544,10.801980,-14.572695,-11.004522,-5.680726,5.989620,-15.055394,16.831904
2784.000000,1,Relaxed,-10.920677,4.563874,-13.810134,-13.588968,-2.483006,11.341655,-4.969144,24.505174
2788.000000,1,Relaxed,-7.881344,0.386499,-9.595106,-13.723313,0.953310,10.514667,-0.451433,31.465375
2792.000000,1,Relaxed,-6.310874,0.573240,-6.672332,-16.601375,4.370621,9.576193,5.686701,29.887556
2796.000000,1,Relaxed,-6.608752,1.997357,-3.528939,-15.741891,5.611086,4.530841,7.373234,37.070593
2800.000000,1,Relaxed,-6.296217,-1.629375,-1.908922,-17.146404,7.865605,3.341851,15.144460,39.814790
2804.000000,1,Relaxed,-0.578149,0.512212,0.611455,-21.417540,6.574563,0.884604,20.917413,34.668798
2808.000000,1,Relaxed,0.053159,3.906344,-2.202938,-16.489397,10.478964,1.186799,18.308274,32.219968
2812.000000,1,Relaxed,2.999868,-2.524700,1.661962,-14.478646,16.512406,-5.926809,23.179133,26.455398
2816.000000,1,Relaxed,9.323937,-0.472078,6.795761,-11.640630,17.885697,-6.379012,19.535548,20.051162
2820.000000,1,Relaxed,14.699547,-4.783548,11.933640,-10.122798,19.227577,-7.223147,12.749490,11.955019
2824.000000,1,Relaxed,8.514265,-2.810534,16.811548,-8.269180,24.310498,-7.251782,9.936630,4.899708
2828.000000,1,Relaxed,8.791690,0.366893,19.061750,-4.284840,22.563742,-9.107554,4.704755,-0.403164
2832.000000,1,Relaxed,7.468916,3.037949,19.987035,-6.833715,18.563785,-16.640800,0.917396,-13.631655
2836.000000,1,Relaxed,9.195253,6.325918,16.269574,-1.988769,18.914772,-19.472136,-2.009508,-19.417729
2840.000000,1,Relaxed,3.813921,3.753481,7.186277,4.140138,17.336472,-21.581856,-2.634002,-22.214663
2844.000000,1,Relaxed,2.400400,9.068894,5.241266,8.840108,7.472637,-13.611341,-12.317536,-25.726714
2848.000000,1,Relaxed,-2.967316,6.429675,0.169809,13.771091,8.022978,-14.093008,-14.142254,-29.253644
2852.000000,1,Relaxed,-4.249235,10.701563,-1.492333,21.367067,-5.416193,-5.333597,-19.514182,-24.157832
2856.000000,1,Relaxed,-3.028581,12.289252,-4.657929,17.016380,-8.301983,-10.277436,-24.558406,-19.534789
2860.000000,1,Relaxed,-6.263551,12.391629,-16.869235,15.700792,-9.897597,0.156821,-24.243422,-18.466541
2864.000000,1,Relaxed,-7.113457,9.368160,-8.794611,10.133929,-17.562779,4.191014,-24.174018,-16.017784
2868.000000,1,Relaxed,-8.640030,2.617405,-13.826069,6.836245,-17.237265,7.207594,-25.492197,-7.477375
2872.000000,1,Relaxed,-6.172793,-3.406753,-15.681688,6.421298,-14.974202,14.102638,-18.604896,-0.611988
2876.000000,1,Relaxed,-4.751771,-3.749561,-9.321470,5.675171,-19.066078,17.095827,-17.406127,-0.025747
2880.000000,1,Relaxed,-3.008994,-8.893352,-12.239802,1.172758,-15.159584,15.497669,-10.538002,8.415603
2884.000000,1,Relaxed,-3.472628,-8.994688,-9.603542,-2.559490,-14.982172,17.123493,-2.364384,17.364636
2888.000000,1,Relaxed,-8.594578,-11.622304,-9.743022,-6.052064,-10.770753,15.627124,2.743688,21.313509
2892.000000,1,Relaxed,-8.695652,-13.836449,-5.538829,-6.872909,-15.583479,12.968836,9.302652,21.518462
2896.000000,1,Relaxed,0.651777,-9.226154,-9.774480,-5.679944,-11.492177,9.592537,14.700333,27.873256
2900.000000,1,Relaxed,5.200080,-12.996069,-8.902598,-2.151155,-9.139646,5.681770,21.622184,25.883238
2904.000000,1,Relaxed,5.779402,-12.473619,-4.013307,0.414512,-5.289457,6.018967,26.324933,25.601425
2908.000000,1,Relaxed,9.270269,-13.756038,-0.712582,-1.082119,2.780203,3.038494,27.020018,23.985725
2912.000000,1,Relaxed,17.584703,-6.809293,2.124712,3.481036,3.364548,-6.253686,24.068365,27.098595
2916.000000,1,Relaxed,22.036472,-9.181459,6.634871,0.304952,4.431347,-7.364721,21.363420,17.810949
2920.000000,1,Relaxed,24.971207,-6.428600,10.259956,2.098672,7.289618,-11.416385,14.842073,12.951881
2924.000000,1,Relaxed,22.919719,-4.779469,6.736412,1.979894,10.992788,-15.885441,12.792107,5.447084
2928.000000,1,Relaxed,21.674666,-6.130072,7.963751,8.745882,14.896823,-16.400871,11.840176,-3.121901
2932.000000,1,Relaxed,20.700009,-0.917840,9.354130,8.645319,15.036786,-20.331816,6.723203,-9.559380
2936.000000,1,Relaxed,20.814851,5.407789,11.205842,12.562120,15.608420,-20.402682,-1.524596,-14.456460
2940.000000,1,Relaxed,16.117045,5.800136,4.959322,14.654921,11.322699,-26.909563,-5.644994,-18.000087
2944.000000,1,Relaxed,9.218045,12.325225,1.848638,12.507700,5.354362,-25.758836,-13.468160,-21.037303
2948.000000,1,Relaxed,10.358018,10.111281,-5.075909,15.395419,2.262354,-26.292339,-19.559682,-21.297412
2952.000000,1,Relaxed,6.506641,17.786534,-8.974759,16.363109,-1.685840,-26.492109,-25.244141,-19.157447
2956.000000,1,Relaxed,3.331759,16.786604,-11.560106,16.123708,-6.537597,-16.744281,-23.029083,-17.450697
2960.000000,1,Relaxed,-2.161194,12.927565,-12.484940,14.715511,-8.165903,-13.633222,-26.811002,-12.730756
2964.000000,1,Relaxed,-0.185069,13.004398,-7.949612,14.540532,-5.410217,-7.180997,-26.402988,-5.803736
2968.000000,1,Relaxed,-2.589236,7.002346,-7.902781,6.410971,-7.092046,-4.150258,-26.338958,-0.787648
2972.000000,1,Relaxed,-5.384837,4.625350,-8.743327,2.824941,-14.878811,1.025558,-32.422992,2.940839
2976.000000,1,Relaxed,-6.486549,0.864318,-7.752614,-4.081765,-15.261916,5.638815,-29.241193,5.050191
2980.000000,1,Relaxed,-10.150668,-7.007307,-3.251961,-12.850255,-14.586399,8.745043,-26.443751,11.928581
2984.000000,1,Relaxed,-11.122904,-10.831393,-1.982890,-11.871425,-7.742413,13.395275,-10.969682,14.757954
2988.000000,1,Relaxed,-10.757394,-10.908918,-0.585351,-16.171418,-7.668307,15.047932,-3.448765,20.053350
2992.000000,1,Relaxed,-9.668834,-19.163079,2.457523,-11.727533,-4.632967,6.046947,2.104997,25.636588
2996.000000,1,Relaxed,-12.360979,-16.851643,8.417346,-14.343404,-1.000589,4.864209,4.597665,27.834275
3000.000000,1,Relaxed,-7.650402,-15.887340,5.756243,-14.180090,-5.342556,1.518819,11.301588,32.223806
3004.000000,1,Relaxed,-7.627392,-11.571875,9.921360,-16.688794,-3.025676,5.842620,16.063428,28.172645
3008.000000,1,Relaxed,-6.184618,-13.970622,15.707079,-11.839647,-0.672061,3.146323,20.705136,27.213963
3012.000000,1,Relaxed,4.301144,-17.626233,14.178115,-6.953108,0.943003,2.704648,21.323162,18.655770
3016.000000,1,Relaxed,9.211581,-15.303011,15.126312,-7.317684,7.923750,1.368276,21.431871,11.804642
3020.000000,1,Relaxed,11.796427,-20.382536,20.680276,-4.668473,6.749936,0.118331,17.216675,1.134148
3024.000000,1,Relaxed,10.651499,-16.191142,21.988653,-0.687909,12.320695,-6.539916,15.922837,-7.654164
3028.000000,1,Relaxed,11.996113,-17.917228,21.736181,1.530724,8.042680,-9.685604,10.268945,-13.622379
3032.000000,1,Relaxed,7.286810,-8.593956,24.497724,-1.596016,6.351409,-10.874862,2.015875,-20.219173
3036.000000,1,Relaxed,5.038314,-7.402072,20.814073,10.552673,2.313044,-10.794633,3.113300,-28.668627
3040.000000,1,Relaxed,-0.211960,-5.796821,12.229142,11.623725,-0.393013,-13.140745,-0.462910,-34.976236
3044.000000,1,Relaxed,0.689127,-2.007889,7.312078,16.813374,-2.585165,-12.894111,-4.981533,-34.800618
3048.000000,1,Relaxed,-1.313174,1.712706,2.711143,19.733635,-10.653415,-13.875879,-9.050110,-37.254796
3052.000000,1,Relaxed,-5.232386,3.686392,0.916385,18.791247,-11.756296,-6.586013,-10.926674,-35.698639
3056.000000,1,Relaxed,-4.618893,8.851924,-4.423445,23.103949,-18.532228,-8.184330,-21.987086,-30.995418
3060.000000,1,Relaxed,-7.221710,7.687096,-10.285306,17.457695,-20.987249,-4.932087,-18.909837,-24.589882
3064.000000,1,Relaxed,-5.508490,8.785592,-8.138744,16.037117,-23.948548,0.034969,-22.419112,-20.928432
3068.000000,1,Relaxed,-7.703235,5.394488,-12.305254,11.520782,-25.567333,6.557225,-17.354037,-13.842393
3072.000000,1,Relaxed,-8.391171,0.644840,-11.478685,9.497090,-22.967014,11.351813,-16.513849,-6.271698
3076.000000,1,Relaxed,-6.833899,-3.739475,-9.281684,3.425585,-20.458060,14.258308,-16.055942,0.165990
3080.000000,1,Relaxed,-7.432164,-5.281936,-7.507232,1.504711,-15.505967,12.358913,-10.602165,4.895468
3084.000000,1,Relaxed,-9.245883,-5.605506,-7.734861,-7.671924,-18.781896,14.404027,-2.374861,10.976053
3088.000000,1,Relaxed,-12.163045,-2.059868,-4.716218,-4.422700,-16.868778,11.966421,1.436387,18.749030
3092.000000,1,Relaxed,-10.114414,-3.188491,-5.258095,-6.292757,-15.283719,14.693022,7.335628,25.448771
3096.000000,1,Relaxed,-9.483920,-2.794267,-3.899064,-8.019016,-12.678958,4.832389,13.776702,28.078889
3100.000000,1,Relaxed,-7.387028,0.631285,-3.032360,-8.279039,-4.831204,7.248550,21.758439,27.929700
3104.000000,1,Relaxed,0.039049,-5.271012,-0.991432,-9.854498,-0.271003,5.825634,27.473651,29.876839
3108.000000,1,Relaxed,3.874604,-4.637244,2.353315,-6.245976,6.214168,0.468938,20.460615,30.060574
3112.000000,1,Relaxed,2.842432,-1.970239,10.091072,-8.720366,8.963834,-1.810047,28.491878,22.629724
3116.000000,1,Relaxed,7.928358,-2.983079,12.191226,-12.827844,14.217067,-4.898591,20.034799,20.945598
3120.000000,1,Relaxed,10.399992,-0.540249,10.138968,-7.857426,12.232738,-8.907412,17.514317,9.777479
3124.000000,1,Relaxed,10.156055,-0.354407,16.317019,-7.944999,15.695807,-7.468156,12.552673,3.784801
3128.000000,1,Relaxed,9.841397,2.485884,19.220213,-7.394029,17.258179,-16.045550,9.971923,-5.192810
3132.000000,1,Relaxed,7.277229,2.647796,23.869471,-6.127517,22.773185,-16.321973,5.466748,-17.936776
3136.000000,1,Relaxed,3.291799,6.451077,17.712461,-2.172742,19.873173,-15.201508,-3.186498,-21.673410
3140.000000,1,Relaxed,-1.637384,12.361944,14.960310,-3.289420,16.460040,-18.381479,-8.926991,-25.940346
3144.000000,1,Relaxed,-4.466424,16.104674,9.890447,3.329560,7.241199,-18.602719,-10.092469,-28.988352
3148.000000,1,Relaxed,-9.439236,17.611461,7.794951,-0.062725,4.783292,-14.492414,-19.382022,-24.399784
3152.000000,1,Relaxed,-10.834745,18.394775,2.701679,5.625099,-0.184297,-16.602374,-18.269602,-21.969076
3156.000000,1,Relaxed,-12.806382,21.182219,-3.863707,4.289334,-4.147129,-5.739059,-22.130512,-25.400774
3160.000000,1,Relaxed,-16.206378,17.339398,-5.199836,2.337086,-8.811204,1.242576,-24.881581,-20.007353
3164.000000,1,Relaxed,-19.404970,8.697459,-8.812488,3.239013,-7.455910,4.147838,-19.797075,-13.499184
3168.000000,1,Relaxed,-18.779327,8.062716,-1.497711,-1.704599,-7.833641,15.592471,-25.480575,-9.738043
3172.000000,1,Relaxed,-19.223841,6.443285,-3.947500,-4.330794,-16.022520,13.902685,-24.207926,-4.257128
3176.000000,1,Relaxed,-21.773779,4.542469,-3.049993,-13.985701,-13.371805,11.845466,-18.403524,0.198107
3180.000000,1,Relaxed,-23.853203,0.384035,-6.802637,-17.359306,-19.855038,20.294006,-12.944312,6.005614
3184.000000,1,Relaxed,-22.181556,-5.756152,-4.658524,-22.552899,-10.294064,21.200415,-2.904837,10.990350
3188.000000,1,Relaxed,-21.868701,-8.782852,-1.793001,-21.711959,-12.410271,25.943212,5.915479,14.703463
3192.000000,1,Relaxed,-19.139814,-11.184055,1.390994,-12.588155,-7.858734,22.704372,13.111223,18.881900
3196.000000,1,Relaxed,-14.388553,-12.176717,3.881006,-11.652897,-9.084608,16.827799,17.780863,21.177322
3200.000000,1,Relaxed,-13.526827,-10.170835,6.099931,-15.895982,-6.853359,18.080768,21.174640,19.794958
3204.000000,1,Relaxed,-9.644433,-8.559662,4.869189,-17.141585,-3.368854,15.447850,28.071786,24.441507
3208.000000,1,Relaxed,-5.454518,-8.041843,6.222571,-13.708888,-5.420374,10.814843,29.869319,17.323846
3212.000000,1,Relaxed,-2.541230,-11.643816,8.766451,-7.852179,2.137633,10.183066,30.473421,16.093947
3216.000000,1,Relaxed,4.683959,-8.957074,9.010261,-7.423154,6.348930,8.444422,33.363157,9.961893
3220.000000,1,Relaxed,12.840085,-7.945467,10.195321,-3.700681,14.103729,2.999990,27.016732,-0.389245
3224.000000,1,Relaxed,9.584941,-6.875756,14.711910,-2.504489,13.991316,-1.112429,24.927316,-5.444788
3228.000000,1,Relaxed,7.588458,-2.808661,15.938745,-1.729486,11.398665,-5.211337,19.936798,-5.976960
3232.000000,1,Relaxed,6.694777,4.020909,13.316279,0.663999,11.983048,-12.338732,14.655474,-16.650370
3236.000000,1,Relaxed,8.341269,5.830252,4.400895,5.062114,14.316323,-18.148530,8.553944,-24.999181
3240.000000,1,Relaxed,6.046336,8.247046,-0.140947,5.994007,10.685426,-14.191721,3.017758,-25.438862
3244.000000,1,Relaxed,3.895379,13.493521,-3.687061,13.067666,5.289577,-17.867112,-1.044070,-30.254631
3248.000000,1,Relaxed,5.327824,18.811685,-4.767750,15.141402,3.537147,-15.035394,-6.055077,-31.272919
3252.000000,1,Relaxed,-3.661201,24.368872,-9.418589,18.116377,-0.966432,-16.274674,-15.482175,-23.011680
3256.000000,1,Relaxed,0.456304,25.641398,-11.135183,19.176425,-6.959797,-14.887702,-15.116422,-21.366265
3260.000000,1,Relaxed,0.015660,22.083621,-15.164107,12.220534,-13.626354,-7.161008,-19.629067,-13.762252
3264.000000,1,Relaxed,-7.709672,22.899324,-18.398037,10.114956,-13.185281,-2.708926,-19.380745,-10.502518
3268.000000,1,Relaxed,-6.969510,20.316042,-18.982463,1.121160,-7.944984,2.981360,-20.115703,-1.697706
3272.000000,1,Relaxed,-7.049238,15.716251,-22.095055,0.331245,-9.068647,4.641914,-16.454592,3.225165
3276.000000,1,Relaxed,-6.684445,11.956287,-16.704140,-3.112435,-6.293611,7.499297,-17.956473,4.081526
3280.000000,1,Relaxed,-6.175891,5.307082,-16.110506,-4.797585,-4.297876,9.810118,-14.081627,16.997949
3284.000000,1,Relaxed,-4.409903,5.010084,-15.300419,-17.780967,1.033299,8.533962,-11.902064,22.666455
3288.000000,1,Relaxed,-5.134283,4.990598,-10.219216,-17.676135,-2.001396,9.139710,-1.231708,31.924076
3292.000000,1,Relaxed,-9.626576,5.572998,-5.802797,-16.279826,2.093308,7.732164,4.035125,33.544213
3296.000000,1,Relaxed,-3.583893,1.218118,-7.012430,-20.980101,1.397340,3.877681,10.157558,35.769059
3300.000000,1,Relaxed,-4.390592,-0.118099,-2.354416,-18.927972,5.587576,-0.000041,18.108415,33.031063
3304.000000,1,Relaxed,2.875434,-7.070333,-2.164822,-16.089013,10.023593,1.410407,20.218057,32.345390
3308.000000,1,Relaxed,3.294030,-3.681888,7.883875,-14.526066,11.796754,0.455652,19.193223,32.197224
3312.000000,1,Relaxed,7.221585,-2.702606,8.281776,-10.824826,15.107054,-4.771481,25.595317,27.707997
3316.000000,1,Relaxed,9.725989,-2.669703,10.803822,-13.240354,18.705743,-9.138839,17.532047,24.680441
3320.000000,1,Relaxed,15.989451,-0.301139,9.430247,-11.503938,17.117470,-8.981615,12.580848,13.254700
3324.000000,1,Relaxed,11.487674,-1.652824,15.384834,-13.006240,21.365233,-4.899887,10.929098,1.839588
3328.000000,1,Relaxed,8.764719,-6.632125,13.828757,-9.612523,25.236471,-11.783279,8.946100,-6.371889
3332.000000,1,Relaxed,12.278762,-0.854086,14.641584,-3.595450,22.527181,-13.458393,4.517573,-10.727198
3336.000000,1,Relaxed,8.250447,-0.799489,17.669576,-1.425116,23.503262,-19.406744,1.761765,-19.221863
3340.000000,1,Relaxed,4.479148,5.354160,14.380017,4.577110,15.924112,-16.291903,-6.799057,-23.450658
3344.000000,1,Relaxed,2.596316,5.478365,9.753497,5.268407,8.836833,-16.581902,-7.691225,-23.065927
3348.000000,1,Relaxed,-3.142962,,1.346507,7.700968,-1.163587,-14.204597,-15.757167,-27.881196
3352.000000,1,Relaxed,-4.769413,12.235503,-3.820263,13.183027,-3.332629,-9.250995,-16.661120,-30.480234
3356.000000,1,Relaxed,-5.793844,12.513098,-9.086145,11.969624,-6.313652,-7.861030,-17.538629,-26.384467
3360.000000,1,Relaxed,-4.992547,9.104824,-10.700950,16.050830,-7.096376,-1.765292,-18.686342,-20.799166
3364.000000,1,Relaxed,-4.730527,4.660574,-9.814875,12.039597,-12.217115,7.899233,-19.256455,-16.201073
3368.000000,1,Relaxed,-9.672417,-0.811699,-11.272033,12.290726,-13.439850,9.802082,-22.381477,-12.076697
3372.000000,1,Relaxed,-5.050231,-2.862913,-7.626485,4.841573,-20.083304,6.378115,-20.456948,-0.457167
3376.000000,1,Relaxed,-9.220371,-3.719061,-10.772505,1.912713,-18.905343,13.484631,-21.824096,3.323098
3380.000000,1,Relaxed,-10.742423,-6.447860,-14.309457,-3.085834,-15.351094,13.702686,-11.074113,8.658896
3384.000000,1,Relaxed,-7.366375,-11.960339,-11.906461,-3.756447,-16.843577,18.736093,-0.545237,13.710409
3388.000000,1,Relaxed,-4.798692,-12.535869,-7.935876,-4.621428,-9.822656,17.690616,6.965104,15.509664
3392.000000,1,Relaxed,-3.073036,-15.127755,-4.604267,-7.200827,-7.990001,10.368684,11.335120,23.653020
3396.000000,1,Relaxed,2.990897,-15.473189,-4.471439,-1.835098,-8.057553,9.824105,19.527473,28.784988
3400.000000,1,Relaxed,0.909912,-12.430088,-6.096248,-4.772695,-8.683470,5.844456,19.094894,31.578660
3404.000000,1,Relaxed,5.179881,-9.956843,-5.853526,-3.040002,-8.053314,3.811446,21.784579,30.970215
3408.000000,1,Relaxed,8.599146,-8.810490,-2.684814,-1.574928,1.384994,2.408379,24.717327,28.285099
3412.000000,1,Relaxed,14.896659,-5.387294,1.910986,-1.797876,4.218622,1.656750,23.908143,19.133569
3416.000000,1,Relaxed,20.785768,-10.674122,2.375528,0.245942,8.677459,-4.058247,25.479839,16.450317
3420.000000,1,Relaxed,21.717758,-9.410426,5.874015,4.678719,11.203465,-8.849850,20.845155,8.161819
3424.000000,1,Relaxed,26.185883,-6.832406,8.646408,3.507217,14.684923,-10.943656,16.199614,6.539767
3428.000000,1,Relaxed,23.723197,-4.036808,10.217053,6.919803,15.868600,-13.605495,8.184855,0.127910
3432.000000,1,Relaxed,17.263515,-0.070906,10.061769,6.064649,15.713086,-21.029365,2.870257,-10.565285
3436.000000,1,Relaxed,13.774624,2.203528,7.270137,10.334101,14.747706,-25.606025,-6.808115,-15.226129
3440.000000,1,Relaxed,14.095992,7.099831,6.003065,11.774833,9.730870,-25.664639,-6.274059,-19.661590
3444.000000,1,Relaxed,10.521756,7.852515,-1.264901,14.969146,6.067574,-24.610029,-11.070512,-20.702396
3448.000000,1,Relaxed,8.214584,8.733400,,16.910215,5.819123,-23.477761,-18.303744,-25.379853
3452.000000,1,Relaxed,5.853459,13.317006,-6.214971,19.354667,-2.837134,-17.972558,-21.949587,-23.983003
3456.000000,1,Relaxed,3.079062,14.846620,-5.913047,19.397457,-5.929749,-21.655709,-27.588072,-15.984679
3460.000000,1,Relaxed,0.546067,17.959269,-7.919297,12.755086,-11.294271,-13.174078,-26.905243,-17.094060
3464.000000,1,Relaxed,-7.049155,15.227140,-9.434653,9.480299,-11.697060,-8.817883,-33.141828,-7.350229
3468.000000,1,Relaxed,-8.965994,7.550306,-12.026359,4.910226,-8.485612,-4.546240,-28.758785,-1.926824
3472.000000,1,Relaxed,-9.075617,3.319318,-9.199196,1.734436,-14.880883,3.059193,-28.946415,4.097860
3476.000000,1,Relaxed,-6.479026,-5.383819,-7.734721,0.718835,-5.245532,5.129597,-24.637624,5.545934
3480.000000,1,Relaxed,-5.883475,-7.340197,-3.179058,-5.457697,-9.817613,8.856026,-18.761306,12.869472
3484.000000,1,Relaxed,-11.533899,-8.664226,-0.448310,-12.471086,-8.569331,8.655093,-14.121588,19.683826
3488.000000,1,Relaxed,-17.639909,-9.273994,1.511562,-15.285320,-11.802421,6.413359,-6.843245,20.755813
3492.000000,1,Relaxed,-16.476533,-13.173346,2.827015,-18.215837,-6.126442,10.754134,1.299889,27.561975
3496.000000,1,Relaxed,-13.329324,-11.178861,3.796144,-16.708872,-6.379501,9.520400,6.977807,26.840378
3500.000000,1,Relaxed,-9.877578,-18.850065,3.537968,-14.136358,-4.040590,10.668020,16.161145,24.445669
3504.000000,1,Relaxed,-5.665636,-20.653823,7.082187,-10.591589,-4.785367,7.895577,18.353309,24.707187
3508.000000,1,Relaxed,-0.473339,-17.440786,15.954486,-8.233909,1.799963,5.647553,20.672294,21.898602
3512.000000,1,Relaxed,2.578335,-14.475945,22.276105,-10.340604,4.848156,3.683838,20.904191,19.490800
3516.000000,1,Relaxed,7.680678,-15.370679,16.585491,-5.730555,3.566419,-2.407913,18.543468,10.504846
3520.000000,1,Relaxed,5.264218,-15.826965,16.962617,-7.339348,7.787737,-2.948469,17.252875,3.105319
3524.000000,1,Relaxed,5.476182,-20.264948,17.969745,-6.810291,10.117184,-4.205244,14.768269,-7.847697
3528.000000,1,Relaxed,8.997612,-19.556657,20.566085,2.333629,8.947570,-7.963215,12.649175,-17.330612
3532.000000,1,Relaxed,5.568527,-13.348424,22.898387,7.792672,13.863324,-7.697917,7.086694,-22.761753
3536.000000,1,Relaxed,8.464648,-10.782580,20.724461,9.511731,8.147347,-12.542616,0.232524,-30.714601
3540.000000,1,Relaxed,4.741597,-7.651508,16.157270,13.053949,3.026633,-14.616643,-6.049298,-30.918087
3544.000000,1,Relaxed,-0.134524,-0.268109,11.680147,15.384625,-2.931721,-13.510884,-11.172769,-32.893675
3548.000000,1,Relaxed,-0.423422,4.450222,3.286691,19.274520,-8.611212,-9.792519,-7.779035,-35.778380
3552.000000,1,Relaxed,-6.835564,9.158153,-2.042555,20.555583,-18.627260,-10.843852,-18.435390,-33.025003
3556.000000,1,Relaxed,-1.940966,8.125511,-7.171170,17.841457,-17.277250,-5.527874,-13.868184,-32.868344
3560.000000,1,Relaxed,-6.445997,8.718146,-13.812444,23.953654,-22.138651,-1.208622,-19.652236,-30.331361
3564.000000,1,Relaxed,-8.674269,4.011794,-13.716442,19.605490,-17.824175,3.655994,-16.773777,-21.927160
3568.000000,1,Relaxed,-6.532566,2.209572,-12.695875,12.368174,-19.091136,7.584386,-23.899926,-13.300548
3572.000000,1,Relaxed,-9.867662,3.668283,-8.345528,5.818893,-21.347834,10.125197,-19.008010,-4.945339
3576.000000,1,Relaxed,-10.670007,-1.896094,-10.111954,2.664492,-23.321505,12.995373,-12.511263,0.482058
3580.000000,1,Relaxed,-9.666420,2.852200,-10.284801,-4.301389,-22.820447,14.400952,-8.283306,7.493448
3584.000000,1,Relaxed,-9.538321,-5.431224,-14.445149,-6.228570,-18.248233,13.476925,-2.898241,9.226469
3588.000000,1,Relaxed,-10.500806,-7.700511,-10.968505,-6.358519,-8.640507,17.992521,1.342846,16.089593
3592.000000,1,Relaxed,-4.968827,-7.585505,-3.311896,-9.362235,-10.594972,14.277382,8.511359,25.380009
3596.000000,1,Relaxed,-2.642553,-3.401821,-7.773472,-11.759490,-12.143924,6.165825,18.199070,22.342377
3600.000000,1,Relaxed,-0.890548,-3.604313,1.628895,-10.764434,-3.968533,6.831374,18.167458,27.698373
3604.000000,1,Relaxed,-1.397846,-6.788923,-3.029760,-13.811578,-0.376990,3.109543,21.861848,26.637774
3608.000000,1,Relaxed,2.951458,0.176401,4.587620,-11.878445,4.434237,0.854207,24.885237,25.951768
3612.000000,1,Relaxed,0.610974,-3.131010,4.195030,-13.126568,8.759104,-0.051834,22.184061,20.541495
3616.000000,1,Relaxed,7.944616,-2.683527,11.636317,-9.458802,14.436769,-3.605951,23.760367,16.100981
3620.000000,1,Relaxed,9.385479,-5.745320,19.963720,-6.928023,16.346763,-5.616852,18.318869,8.524567
3624.000000,1,Relaxed,11.479524,-1.004513,13.043973,-6.940696,14.710170,-9.743557,14.741851,-1.253880
3628.000000,1,Relaxed,8.179068,-0.180832,21.670395,-9.173767,19.764484,-14.654803,7.420904,-6.546785
3632.000000,1,Relaxed,5.781235,5.681288,16.418005,-8.770985,20.125578,-21.774157,-0.108595,-12.566985
3636.000000,1,Relaxed,5.998952,8.700179,17.612017,-4.581883,16.672844,-18.786390,-2.674748,-18.249384
3640.000000,1,Relaxed,-2.051691,15.353250,11.883578,-0.732607,14.204049,-20.066268,-4.450733,-20.584944
3644.000000,1,Relaxed,-4.260053,16.783701,9.029276,2.694703,9.874916,-15.352521,-8.451418,-27.075605
3648.000000,1,Relaxed,-8.149143,14.580298,4.728404,4.545449,5.927170,-13.387023,-13.219530,-30.682421
3652.000000,1,Relaxed,-9.932816,16.882677,5.833979,7.950772,6.056152,-12.956608,-16.286719,-26.978894
3656.000000,1,Relaxed,-13.074230,17.668963,-2.105635,9.153370,-0.383636,-7.286299,-22.959019,-23.453573
3660.000000,1,Relaxed,-15.723480,20.206907,-0.791337,3.182219,-9.697870,-3.576838,-24.927236,-21.262947
3664.000000,1,Relaxed,-17.166533,14.411814,-7.013607,-4.088327,-12.074897,3.802876,-25.718692,-15.254102
3668.000000,1,Relaxed,-17.248942,9.525882,-9.757274,-3.105620,-14.864810,10.583454,-20.406439,-16.398262
3672.000000,1,Relaxed,-19.307478,6.905292,-2.787128,-1.809296,-10.589353,19.499707,-18.280415,-6.101304
3676.000000,1,Relaxed,-17.911211,-1.401364,-4.387469,-11.724143,-7.506535,17.586001,-15.993694,-2.948093
3680.000000,1,Relaxed,-21.601171,-4.712978,1.492243,-13.270644,-13.894594,19.774296,-12.984559,3.729200
3684.000000,1,Relaxed,-20.581809,-10.404734,1.969628,-17.629699,-9.965537,18.481977,-1.602707,13.044569
3688.000000,1,Relaxed,-19.236344,-6.661030,-0.931553,-19.199362,-9.547692,21.999034,2.043578,12.789098
3692.000000,1,Relaxed,-18.521120,-4.257887,0.315418,-19.301197,-8.616400,18.184596,11.506738,19.091611
3696.000000,1,Relaxed,-17.109405,-7.373258,-0.247650,-16.249610,-4.496473,17.239278,23.643933,21.434558
3700.000000,1,Relaxed,-11.546647,-7.478545,2.522709,-16.144534,-0.802442,16.469755,27.089150,20.412275
3704.000000,1,Relaxed,-7.137541,-13.412272,2.574668,-10.805125,-1.842838,16.604371,33.270638,16.578094
3708.000000,1,Relaxed,-0.178941,-10.875009,5.895859,-10.667190,3.148170,11.222821,30.736420,21.318830
3712.000000,1,Relaxed,2.927101,-11.088096,8.430174,-9.285454,4.203719,4.661531,33.002370,15.081764
3716.000000,1,Relaxed,5.109373,-7.085873,9.955567,-9.383128,4.485882,5.338752,28.432227,8.932852
3720.000000,1,Relaxed,8.519865,-3.380879,12.370150,-11.186259,8.613447,-2.993157,26.480530,2.015657
3724.000000,1,Relaxed,3.452489,-3.797179,9.527760,-4.833917,12.820724,1.047283,27.348289,-6.147506
3728.000000,1,Relaxed,11.676798,-5.475069,9.123344,2.939280,15.337889,0.026280,19.619392,-15.383231
3732.000000,1,Relaxed,4.842424,-2.474303,8.774757,4.561495,14.667059,-7.543645,15.453407,-19.122539
3736.000000,1,Relaxed,8.231735,1.726870,7.040713,8.647298,13.981037,-9.485231,7.386617,-25.312779
3740.000000,1,Relaxed,9.791991,10.763776,1.575677,8.528489,9.953092,-15.692724,4.501345,-25.294096
3744.000000,1,Relaxed,5.692679,19.469925,-2.205628,10.443810,4.178951,-13.551096,-3.971616,-26.167044
3748.000000,1,Relaxed,-1.250297,23.048246,-3.415700,14.855224,1.874344,-16.652454,-5.230728,-23.232939
3752.000000,1,Relaxed,-2.363335,19.773242,-12.680678,18.816668,-1.602992,-18.048771,-14.231385,-25.342801
3756.000000,1,Relaxed,1.200228,27.005682,-15.952263,18.467883,-3.181143,-9.825452,-13.010017,-23.763782
3760.000000,1,Relaxed,-2.669097,24.279406,-25.251625,15.855530,-8.631799,-1.571535,-18.042542,-20.391381
3764.000000,1,Relaxed,2.353440,16.702683,-19.248118,11.213707,-9.135225,0.723888,-17.270522,-6.321416
3768.000000,1,Relaxed,-3.056892,17.104919,-19.047230,6.897605,-5.594141,1.873161,-19.879934,-1.645593
3772.000000,1,Relaxed,-3.691667,18.303522,-18.349544,-1.032858,-9.506564,5.242948,-20.659661,2.914621
3776.000000,1,Relaxed,-3.160982,14.874562,-16.975844,-9.038870,-8.752771,7.908464,-17.846175,13.769967
3780.000000,1,Relaxed,-7.865964,7.309917,-18.457726,-14.071733,-7.126627,7.937256,-13.567703,18.365805
3784.000000,1,Relaxed,-10.744561,6.604646,-20.219075,-15.007041,-0.804439,15.516584,-3.103542,18.107663
3788.000000,1,Relaxed,-7.953194,-2.424977,-10.650493,-16.650486,3.355427,9.472069,0.286773,24.486699
3792.000000,1,Relaxed,-5.824497,-0.113494,-7.994016,-19.243202,6.074513,10.014201,7.597962,30.404097
3796.000000,1,Relaxed,-6.757461,2.674565,-6.110242,-17.377123,5.054900,5.700615,13.015884,31.982631
3800.000000,1,Relaxed,-3.519165,0.944445,-5.534137,-19.493941,3.902978,-0.169919,19.028596,35.600226
3804.000000,1,Relaxed,-3.259513,0.042663,-4.721923,-21.805473,11.272060,-0.879405,19.055238,36.619986
3808.000000,1,Relaxed,2.791048,2.294923,1.220362,-18.874078,12.648335,1.392047,21.120967,29.207002
3812.000000,1,Relaxed,5.313661,1.204069,7.223715,-16.156445,14.525295,-1.628602,22.922231,26.794910
3816.000000,1,Relaxed,9.163442,0.036231,8.001650,-14.249692,22.510099,-3.402290,16.746718,21.231951
3820.000000,1,Relaxed,12.456604,-2.438583,8.750120,-9.444961,21.628508,-9.931865,15.122363,12.043927
3824.000000,1,Relaxed,13.760150,-2.113483,15.802729,-13.685908,26.952658,-8.261783,12.214686,3.718318
3828.000000,1,Relaxed,13.269456,-0.736983,17.617817,-12.012003,26.745147,-12.454252,6.431055,-4.844502
3832.000000,1,Relaxed,7.578808,1.710481,18.787957,-5.537252,19.954214,-16.597752,-0.411976,-9.609904
3836.000000,1,Relaxed,4.465932,4.309734,14.488062,-2.169533,19.901068,-17.682164,0.106161,-21.257706
3840.000000,1,Relaxed,5.746973,5.204349,2.256418,2.569856,16.867950,-18.642693,-4.573325,-24.505195
3844.000000,1,Relaxed,0.342598,4.038124,5.146654,5.766727,16.796777,-16.671979,-7.935868,-28.219798
3848.000000,1,Relaxed,-3.206547,5.844812,-0.854354,9.994789,5.334011,-13.623468,-13.322032,-26.326172
3852.000000,1,Relaxed,-0.795799,9.237917,-4.677049,14.835620,3.368735,-12.323107,-16.325015,-27.885808
3856.000000,1,Relaxed,-2.658138,11.874226,-6.401060,13.907320,-6.615615,-4.579365,-19.755390,-24.629277
3860.000000,1,Relaxed,-9.089626,13.920670,-9.957280,15.555497,-15.204885,-2.369144,-23.726247,-22.299675
3864.000000,1,Relaxed,-7.387511,8.227414,-17.630751,9.126171,-16.284290,0.620826,-22.050299,-14.576893
3868.000000,1,Relaxed,-6.416525,5.927844,-14.286651,7.754409,-16.545081,13.202841,-22.219540,-11.526627
3872.000000,1,Relaxed,-5.590793,1.066588,-13.705217,11.051677,-17.745293,12.641406,-17.209446,-7.236016
3876.000000,1,Relaxed,-3.402035,-6.343065,-13.828526,2.924878,-14.131099,15.483390,-11.473985,-1.242935
3880.000000,1,Relaxed,-6.958578,-8.462439,-14.031074,0.546846,-12.505234,17.617066,-6.861723,7.953460
3884.000000,1,Relaxed,-3.997620,-12.168179,-12.582801,-2.985622,-13.746067,11.384256,-1.012796,11.518572
3888.000000,1,Relaxed,-5.520696,-9.277127,-7.476929,-5.060458,-14.685773,13.400511,3.623567,17.592679
3892.000000,1,Relaxed,-4.714907,-10.143869,-12.629759,-6.433814,-12.510477,10.511494,10.245166,25.342081
3896.000000,1,Relaxed,0.853574,-13.929689,-8.204530,-5.807593,-9.834595,9.920296,16.094017,25.188599
3900.000000,1,Relaxed,6.259719,-12.323455,-10.305344,-4.262004,-5.939603,8.659052,19.106587,28.284313
3904.000000,1,Relaxed,11.898268,-10.253444,-7.390297,-3.268982,-0.087213,5.907974,23.741078,25.954908
3908.000000,1,Relaxed,16.120750,-13.216487,-6.081131,0.743904,1.988077,2.331678,26.987340,25.967933
3912.000000,1,Relaxed,17.680648,-9.596231,1.153585,5.188735,1.429665,-0.476060,25.281269,23.557589
3916.000000,1,Relaxed,21.405980,-6.731191,4.850615,3.215476,5.346638,-7.202302,24.983403,20.780433
3920.000000,1,Relaxed,23.447643,-8.222459,1.715310,0.969044,9.591107,-11.239359,21.334298,13.420756
3924.000000,1,Relaxed,22.679667,-4.369272,6.299832,3.288562,15.306174,-13.093218,14.116493,5.117796
3928.000000,1,Relaxed,23.241994,-7.130545,7.105094,3.101761,19.383704,-12.157193,13.289541,-6.182652
3932.000000,1,Relaxed,24.708292,-3.228137,6.918115,8.199016,22.063498,-19.454229,5.311948,-13.607245
3936.000000,1,Relaxed,21.260020,3.936564,9.483034,13.351967,17.340399,-25.380562,0.879473,-15.179594
3940.000000,1,Relaxed,15.855728,7.094888,0.937905,15.680271,14.525833,-31.253931,-5.765806,-17.006907
3944.000000,1,Relaxed,11.030021,10.525466,2.279375,11.990951,4.923915,-30.782274,-10.775911,-18.676981
3948.000000,1,Relaxed,8.151142,16.101727,0.414670,13.863917,3.779659,-27.071571,-18.855625,-21.059731
3952.000000,1,Relaxed,3.577102,17.342035,-4.554189,20.561917,-3.343791,-23.039178,-19.553986,-18.980383
3956.000000,1,Relaxed,2.386856,17.034850,-10.575776,16.659701,-4.572333,-19.275692,-28.431214,-17.197500
3960.000000,1,Relaxed,1.679370,15.474383,-13.811099,18.570511,-0.836248,-11.687381,-24.539353,-14.782774
3964.000000,1,Relaxed,-1.974189,8.982132,-13.597800,12.072062,-8.134015,-7.716968,-28.830936,-9.114878
3968.000000,1,Relaxed,-1.673530,7.330064,-10.422735,7.455323,-12.069597,-3.940785,-29.462576,-2.772949
3972.000000,1,Relaxed,-4.817953,3.949518,-6.677328,0.449106,-10.959540,2.040485,-32.707660,1.491274
3976.000000,1,Relaxed,-10.749425,-1.959559,-8.760526,-3.444782,-13.467120,6.185089,-26.234773,6.544033
3980.000000,1,Relaxed,-7.818965,-5.422445,-5.339563,-7.946549,-13.384520,4.605740,-16.792581,10.565919
3984.000000,1,Relaxed,-12.874869,-5.839663,-0.826264,-15.572423,-4.641204,10.653505,-12.447303,12.749747
3988.000000,1,Relaxed,-14.600163,-12.471109,-1.625371,-14.628767,-3.724140,7.727849,-2.123635,20.299975
3992.000000,1,Relaxed,-11.687628,-18.000597,-0.209599,-11.719829,-3.403342,7.138133,3.188351,23.569956
3996.000000,1,Relaxed,-10.071368,-18.810752,2.611217,-14.141156,-4.755887,6.025101,10.383669,27.687432
4000.000000,1,Relaxed,-6.937255,-15.724044,8.425912,-15.723380,-4.916569,7.358876,13.069624,29.525870
4004.000000,1,Relaxed,-6.275141,-12.349343,8.144394,-12.607656,-0.322252,2.977869,15.035895,28.351064
4008.000000,1,Relaxed,-3.499549,-16.294721,12.038758,-10.390710,-0.064501,2.859479,20.456591,24.727595
4012.000000,1,Relaxed,2.987408,-14.312042,11.820266,-10.206175,-3.006669,3.717047,25.182097,14.205441
4016.000000,1,Relaxed,7.255236,-17.623097,17.455750,-5.765556,11.691031,1.840173,22.300473,5.262530
4020.000000,1,Relaxed,10.543335,-18.374691,18.656799,-6.344258,9.863383,-2.249866,18.431365,2.205802
4024.000000,1,Relaxed,11.805298,-21.297234,20.574454,-3.847894,11.379754,0.373048,19.269058,-4.249340
4028.000000,1,Relaxed,11.382974,-13.741639,22.830188,0.373444,12.447181,-7.726053,12.519956,-11.121726
4032.000000,1,Relaxed,3.913866,-11.828305,19.806342,2.902209,9.298454,-10.675061,7.217561,-20.735450
4036.000000,1,Relaxed,4.782097,-5.282342,21.658996,4.168608,7.048203,-14.017788,2.162176,-32.916450
4040.000000,1,Relaxed,-1.496046,-5.787625,11.757185,8.728635,1.676455,-12.229439,-0.262625,-33.754154
4044.000000,1,Relaxed,0.867749,-1.639722,8.451738,12.896894,-3.118834,-8.857635,-3.197921,-36.035490
4048.000000,1,Relaxed,-0.531680,1.441062,2.653911,20.551781,-4.153895,-6.266219,-12.789893,-34.252553
4052.000000,1,Relaxed,0.386513,3.946122,-1.796961,18.201138,-7.346114,-10.027307,-12.268588,-31.285688
4056.000000,1,Relaxed,-1.207746,8.130671,-4.678520,19.379344,-17.727700,-4.519616,-17.858512,-28.445824
4060.000000,1,Relaxed,-5.712314,7.897121,-6.975549,14.523729,-22.935271,-1.543917,-21.210188,-26.810095
4064.000000,1,Relaxed,-9.149091,5.822831,-13.881833,15.462399,-21.260592,5.411301,-20.677863,-22.519683
4068.000000,1,Relaxed,-7.555290,7.296389,-15.899137,8.041597,-23.970873,9.250950,-21.478350,-13.833600
4072.000000,1,Relaxed,-8.493091,2.439248,-13.234879,8.786740,-21.771594,12.902115,-19.188084,-10.573146
4076.000000,1,Relaxed,-6.346746,-4.804501,-10.975219,7.970499,-19.631946,16.612063,-9.903382,0.451262
4080.000000,1,Relaxed,-4.550148,-4.874904,-6.690791,2.852290,-17.500981,16.693083,-7.513172,1.291532
4084.000000,1,Relaxed,-8.946825,-8.618858,-7.130676,-9.163865,-19.174040,17.174027,-8.074802,13.200921
4088.000000,1,Relaxed,-7.367508,-8.981029,-4.905177,-8.560265,-15.393788,12.869061,1.871448,19.022272
4092.000000,1,Relaxed,-7.427682,-3.428610,-4.215578,-12.976192,-11.448074,10.050530,11.504958,22.206622
4096.000000,1,Relaxed,-8.861034,-8.584043,-8.018323,-13.886624,-8.147106,3.339564,15.636084,22.932719
4100.000000,1,Relaxed,-1.887943,-4.122320,-6.580864,-11.259205,-2.004405,3.723738,24.124802,21.582639
4104.000000,1,Relaxed,1.474744,-7.239360,-3.334471,-7.417409,4.130284,4.712461,27.230482,24.893230
4108.000000,1,Relaxed,4.367217,-6.461299,1.404996,-7.554655,7.805373,0.353948,23.185275,24.056407
4112.000000,1,Relaxed,5.972721,-2.991127,10.444883,-10.119505,9.845502,-0.343605,23.757864,24.301574
4116.000000,1,Relaxed,7.547010,-0.235792,12.233270,-8.458251,10.263929,-9.026464,19.882789,14.888632
4120.000000,1,Relaxed,8.435078,-1.738852,13.130199,-15.485048,12.276258,-10.068974,14.724680,9.685975
4124.000000,1,Relaxed,10.234671,1.658988,9.165896,-11.828629,17.397849,-11.124434,11.663533,-2.357502
4128.000000,1,Relaxed,7.000352,0.982331,20.448305,-9.085506,22.178293,-9.241316,9.511361,-7.167533
4132.000000,1,Relaxed,9.206252,0.048302,16.070275,-3.613156,24.175650,-15.811941,4.941857,-19.976049
4136.000000,1,Relaxed,3.640092,5.398484,21.642831,-1.484918,22.037229,-17.202083,0.617645,-17.068232
4140.000000,1,Relaxed,1.273420,12.512536,12.181939,0.004738,16.073280,-19.766737,-4.090235,-25.297621
4144.000000,1,Relaxed,-3.775024,17.293849,9.525564,1.038501,12.254431,-17.827114,-10.299903,-32.530788
4148.000000,1,Relaxed,-4.136511,18.931235,2.011485,3.150985,7.766187,-15.205693,-13.644757,-29.111221
4152.000000,1,Relaxed,-14.983364,16.915065,2.059298,6.107714,2.333047,-12.780749,-18.555704,-29.374997
4156.000000,1,Relaxed,-10.872047,19.453224,-5.407082,6.265136,-3.318776,-10.664812,-19.056911,-27.713830
4160.000000,1,Relaxed,-14.442442,17.053036,-7.960841,4.625281,-7.938928,-1.288921,-22.133025,-23.961392
4164.000000,1,Relaxed,-14.884954,12.920450,-8.566409,3.583030,-10.373297,5.488719,-23.502697,-19.309756
4168.000000,1,Relaxed,-16.685753,9.817360,-2.763287,0.646214,-12.117376,10.972074,-18.658916,-13.303228
4172.000000,1,Relaxed,-17.540843,6.396578,-1.952005,-7.074520,-12.105483,12.103600,-25.492986,-8.039143
4176.000000,1,Relaxed,-20.439697,2.397155,-0.326611,-11.510857,-12.588041,18.584195,-20.663293,0.818243
4180.000000,1,Relaxed,-18.542814,-3.096356,-6.291818,-13.448693,-15.740548,19.632754,-9.531725,5.818440
4184.000000,1,Relaxed,-22.344617,-10.563906,-4.028439,-19.897237,-11.448646,20.875858,-2.340345,7.218011
4188.000000,1,Relaxed,-17.331578,-9.718750,-4.785805,-13.634238,-6.990027,22.776145,3.835047,12.231334
4192.000000,1,Relaxed,-17.898657,-11.385522,-0.230821,-18.749505,-7.412096,25.547612,11.634109,14.261658
4196.000000,1,Relaxed,-13.849247,-10.159768,0.908578,-16.383762,-4.392025,19.437103,17.278318,19.909740
4200.000000,1,Relaxed,-13.575161,-12.769905,3.174507,-17.841044,-5.835641,17.260142,25.459151,21.929425
4204.000000,1,Relaxed,-7.922165,-7.754722,4.460786,-10.963599,-5.289342,11.575798,30.302316,20.696599
4208.000000,1,Relaxed,-1.801489,-4.311103,5.302551,-13.950519,-0.392846,11.185707,34.461317,19.175295
4212.000000,1,Relaxed,0.900790,-8.164071,3.210046,-10.419149,4.850158,9.219653,29.373065,13.963401
4216.000000,1,Relaxed,6.579166,-8.734329,8.888511,-6.940331,6.890092,7.877375,28.752268,4.833742
4220.000000,1,Relaxed,9.070346,-7.889350,9.200650,-3.775527,11.670328,3.481168,25.468335,2.770142
4224.000000,1,Relaxed,12.794048,-2.698399,11.063982,-2.912980,15.279474,-1.319308,26.398146,-6.151191
4228.000000,1,Relaxed,9.988128,-4.812945,11.394650,-0.621099,13.447607,-5.906961,19.391488,-8.374585
4232.000000,1,Relaxed,9.953007,3.000131,9.917730,-5.091857,10.831138,-11.686586,13.311245,-17.155456
4236.000000,1,Relaxed,10.105192,5.937071,9.812792,4.853604,9.354271,-13.931406,8.698375,-20.120818
4240.000000,1,Relaxed,9.999305,9.956775,1.174420,8.260829,9.646149,-12.329636,3.969701,-26.193018
4244.000000,1,Relaxed,11.133934,13.637771,-3.770842,14.532387,5.716977,-16.799016,-2.097323,-29.756810
4248.000000,1,Relaxed,3.119249,19.524635,-7.834484,19.007321,4.605789,-12.237135,-3.482856,-30.378933
4252.000000,1,Relaxed,5.956035,24.141724,-5.467172,17.804448,4.065755,-9.849452,-10.466366,-26.954108
4256.000000,1,Relaxed,1.560828,24.518852,-11.782316,18.372750,-7.406848,-11.832668,-17.903753,-19.965587
4260.000000,1,Relaxed,-1.992977,23.811838,-20.220253,10.699127,-9.534895,-8.944306,-17.921898,-15.615842
4264.000000,1,Relaxed,-3.164413,27.893871,-22.327237,10.168919,-6.327160,-0.286037,-20.839264,-11.551461
4268.000000,1,Relaxed,-4.653854,18.491460,-22.805690,3.932684,-8.666870,1.662171,-18.386080,-2.941038
4272.000000,1,Relaxed,-3.882825,13.762056,-20.712957,-0.711506,-7.799604,7.363430,-16.997029,1.441929
4276.000000,1,Relaxed,-4.265029,6.870519,-20.055423,-3.139581,-5.156760,6.869044,-12.385036,9.445475
4280.000000,1,Relaxed,-6.864716,9.475562,-15.001249,-5.430419,-2.474222,5.457383,-10.272640,12.791823
4284.000000,1,Relaxed,-8.889850,6.358363,-10.081367,-13.072714,1.236371,8.477184,-7.690473,23.755061
4288.000000,1,Relaxed,-6.032964,8.526718,-13.254558,-14.050965,-1.831247,5.113225,0.703976,28.604225
4292.000000,1,Relaxed,-8.031241,0.683246,-11.691312,-20.237478,-0.358443,5.926929,7.308916,33.661957
4296.000000,1,Relaxed,-7.102158,5.286020,-9.882648,-16.847770,1.089159,6.763104,14.002707,34.726084
4300.000000,1,Relaxed,-2.953598,0.252101,-8.245659,-19.326649,7.567321,7.566526,20.522907,32.798211
4304.000000,1,Relaxed,2.456077,-0.511387,0.496051,-15.808512,8.443506,3.266944,20.845458,32.112275
4308.000000,1,Relaxed,5.346462,-6.195909,4.010575,-13.955061,13.675449,2.848282,24.399904,34.333642
4312.000000,1,Relaxed,7.159336,0.820499,8.834803,-12.113415,14.956678,-2.259134,18.057025,26.368741
4316.000000,1,Relaxed,12.966395,0.480117,9.250143,-13.102562,20.338965,-7.631742,18.363198,22.023564
4320.000000,1,Relaxed,14.315598,-1.173054,10.437054,-15.091328,18.963968,-12.803970,15.191150,11.322495
4324.000000,1,Relaxed,12.306335,-0.714064,9.281642,-9.965843,23.422922,-6.338182,16.153926,-0.908913
4328.000000,1,Relaxed,13.665251,-4.108526,15.418575,-4.095174,21.876232,-12.733158,9.965325,-8.644061
4332.000000,1,Relaxed,14.369840,-2.908299,15.940669,-3.725434,25.705905,-10.512670,7.065770,-13.316358
4336.000000,1,Relaxed,12.785863,-0.334521,16.702835,-2.178030,20.174220,-15.531867,-3.388302,-18.954196
4340.000000,1,Relaxed,8.244717,0.212065,10.666534,5.221210,16.196443,-20.550923,-6.369828,-23.658098
4344.000000,1,Relaxed,3.539916,9.299858,6.231404,6.003402,14.860126,-17.524967,-12.124436,-24.359839
4348.000000,1,Relaxed,-0.595545,13.139992,1.437547,9.421025,5.988911,-11.365205,-8.975359,-26.732699
4352.000000,1,Relaxed,-5.944896,10.932494,-2.906902,13.949810,-1.569205,-8.711630,-17.885658,-29.021981
4356.000000,1,Relaxed,-2.838028,12.136198,-12.878153,14.009045,0.615203,-7.841510,-18.478140,-24.949809
4360.000000,1,Relaxed,-6.789086,7.856796,-11.764008,14.649896,-11.142167,-2.391545,-19.869667,-22.401823
4364.000000,1,Relaxed,-5.575570,5.359451,-13.931929,13.486779,-9.746159,4.875372,-24.109416,-18.308844
4368.000000,1,Relaxed,-1.591515,0.537249,-15.093282,13.615728,-17.480316,8.403684,-21.943896,-9.464430
4372.000000,1,Relaxed,-3.097428,-2.144227,-16.711856,6.403785,-16.874651,13.416723,-18.694946,-3.782095
4376.000000,1,Relaxed,-2.670442,-0.916453,-13.804866,-1.092977,-20.068054,14.257460,-15.756479,0.336668
4380.000000,1,Relaxed,-6.784577,-7.028787,-11.908053,-5.094392,-15.997916,11.687492,-14.349775,6.077845
4384.000000,1,Relaxed,-7.932034,-7.169799,-11.176680,-4.210653,-13.675195,18.065591,-2.932802,14.253210
4388.000000,1,Relaxed,-3.820175,-14.164269,-11.597665,-6.332258,-11.086640,16.727140,8.137764,19.425586
4392.000000,1,Relaxed,0.150645,-16.892484,-5.635940,-6.217972,-5.989955,14.137668,13.604968,21.982891
4396.000000,1,Relaxed,3.124586,-11.560712,-7.888604,-1.788232,-8.457894,10.000605,19.481402,25.646229
4400.000000,1,Relaxed,7.504483,-11.084136,-5.196835,-2.422272,-6.088359,8.039524,18.803441,24.995867
4404.000000,1,Relaxed,6.919088,-9.427065,-7.276740,-4.536603,-3.154953,5.261561,26.686215,31.532677
4408.000000,1,Relaxed,12.125739,-7.551709,-5.818535,-1.536791,-3.846928,-0.018123,26.467977,27.900152
4412.000000,1,Relaxed,14.670186,-10.922696,-3.742560,0.968843,2.743925,-1.225782,30.236274,22.683344
4416.000000,1,Relaxed,22.791025,-10.064255,-3.561791,4.136789,9.390344,-5.553861,25.136007,10.504188
4420.000000,1,Relaxed,25.406773,-10.080205,6.592317,5.446423,14.576367,-12.027552,17.063160,8.732742
4424.000000,1,Relaxed,24.909277,-10.740371,6.315484,-0.216489,18.739010,-13.223967,17.563630,2.299599
4428.000000,1,Relaxed,24.801607,-4.991750,8.327098,5.459741,16.395181,-14.164526,9.007558,-2.186264
4432.000000,1,Relaxed,22.359531,3.128103,7.085288,8.363034,15.568548,-26.044078,3.110431,-10.982775
4436.000000,1,Relaxed,18.836287,5.301357,5.651862,8.384885,12.822329,-25.824474,-4.485506,-17.011487
4440.000000,1,Relaxed,19.352333,4.953645,5.157297,11.931447,13.244577,-26.397320,-2.914694,-20.331054
4444.000000,1,Relaxed,12.459960,6.412141,2.467733,16.837674,9.695590,-24.299423,-11.447550,-25.459752
4448.000000,1,Relaxed,9.630848,15.039703,-6.932854,18.775386,6.391775,-25.190460,-12.094363,-24.582633
4452.000000,1,Relaxed,3.415705,14.250903,-6.122915,22.873125,1.758983,-24.900771,-21.749120,-20.580319
4456.000000,1,Relaxed,2.544591,15.168805,-10.342481,20.245334,-2.889570,-22.659887,-28.078863,-14.784470
4460.000000,1,Relaxed,-0.166523,15.766184,-9.601041,13.618091,-10.113650,-12.564554,-26.950468,-11.811973
4464.000000,1,Relaxed,-4.486090,10.592464,-13.033079,9.025609,-12.935108,-10.271517,-30.326586,-6.911442
4468.000000,1,Relaxed,-2.142459,11.726036,-14.626352,0.132614,-10.297571,-2.321950,-28.713830,-4.376641
4472.000000,1,Relaxed,-5.499140,2.575111,-11.120343,1.859940,-15.753382,7.910221,-28.497906,3.226695
4476.000000,1,Relaxed,-2.756826,0.588576,-9.297453,-4.394892,-9.711547,5.022313,-23.611650,1.922447
4480.000000,1,Relaxed,-6.523465,-6.727438,-1.918962,-6.367195,-10.364467,8.655892,-17.636850,15.208263
4484.000000,1,Relaxed,-8.867007,-7.082678,-0.891995,-11.260826,-5.568954,10.872881,-15.481312,21.303964
4488.000000,1,Relaxed,-11.081172,-10.890356,1.827738,-13.247413,-8.565321,10.764158,-7.098344,22.643122
4492.000000,1,Relaxed,-11.324940,-10.520980,-3.686490,-12.931921,-7.952533,5.426808,0.599810,26.021467
4496.000000,1,Relaxed,-6.486651,-12.324893,1.857386,-15.316951,-5.270863,6.193806,8.899468,24.844413
4500.000000,1,Relaxed,-11.659427,-15.052919,7.394232,-9.084169,-3.819867,8.383549,18.148493,23.869232
4504.000000,1,Relaxed,-7.107220,-17.943826,9.323897,-10.706175,-0.427697,11.565125,19.155984,21.837609
4508.000000,1,Relaxed,0.110614,-19.807241,7.953009,-11.219509,3.134411,4.483968,20.273105,20.717319
4512.000000,1,Relaxed,4.980977,-14.469046,15.338600,-8.101467,3.599824,1.579985,26.456068,17.683770
4516.000000,1,Relaxed,8.714847,-18.653441,15.704688,-7.273815,4.467492,-0.120797,17.999893,10.709993
4520.000000,1,Relaxed,9.317522,-16.219979,22.020372,-4.809960,4.705479,-1.673735,16.354916,5.272042
4524.000000,1,Relaxed,8.189787,-16.327409,19.492371,-5.551886,6.829748,-2.195326,14.185457,-7.754317
4528.000000,1,Relaxed,11.837684,-15.189765,18.360034,0.255113,11.636382,-6.433290,11.919360,-19.778317
4532.000000,1,Relaxed,12.462123,-14.949350,20.301351,5.745471,12.571031,-8.713844,8.649689,-21.158602
4536.000000,1,Relaxed,9.817396,-9.920398,13.456724,9.300613,6.484524,-10.924092,4.963336,-32.702020
4540.000000,1,Relaxed,8.227824,-6.261230,12.776123,14.482936,5.730412,-11.298822,-1.639453,-34.973687
4544.000000,1,Relaxed,2.473583,-4.047052,9.831384,16.367185,-0.318933,-14.404825,-4.935669,-34.866894
4548.000000,1,Relaxed,-2.953187,3.754828,5.501862,20.061944,-5.518583,-12.069092,-8.480067,-34.742593
4552.000000,1,Relaxed,-2.424031,4.583697,-6.293816,19.694194,-11.486144,-10.882574,-12.861518,-37.668755
4556.000000,1,Relaxed,-4.067213,3.898787,-8.746653,24.169597,-14.351853,-0.810216,-14.776949,-34.143696
4560.000000,1,Relaxed,-4.217783,6.050106,-9.474439,18.484606,-13.761377,0.950650,-15.072148,-31.402573
4564.000000,1,Relaxed,-1.398201,4.486328,-15.142920,15.986766,-20.401491,7.794933,-20.653403,-20.803990
4568.000000,1,Relaxed,-9.796655,3.008152,-10.836918,12.259719,-23.077255,9.158873,-13.787968,-12.144266
4572.000000,1,Relaxed,-8.771771,2.188276,-10.580641,9.207351,-24.843410,11.016668,-18.857776,-9.739320
4576.000000,1,Relaxed,-9.760684,-4.290348,-8.009010,5.381032,-18.057850,9.153528,-15.421283,0.870583
4580.000000,1,Relaxed,-9.405965,-5.984917,-12.798519,-3.617173,-15.992558,9.791529,-11.438844,6.239504
4584.000000,1,Relaxed,-9.376659,-2.721109,-11.936538,-6.499457,-17.509114,18.429915,-3.898624,8.574218
4588.000000,1,Relaxed,-10.488171,-11.043222,-7.115079,-6.924426,-12.708441,15.898253,7.860944,11.585130
4592.000000,1,Relaxed,-7.130186,-7.900867,-8.110739,-5.720360,-8.587774,13.141817,16.375466,18.659830
4596.000000,1,Relaxed,-4.894760,-9.017035,-3.473658,-9.108857,-3.714679,5.812956,14.959691,23.728885
4600.000000,1,Relaxed,2.936821,-5.517257,-2.543574,-11.218964,-7.335212,2.922351,20.226602,30.404313
4604.000000,1,Relaxed,2.932477,-5.332799,-0.468668,-14.041440,-6.044302,4.928056,23.108473,27.266701
4608.000000,1,Relaxed,1.187217,-1.995138,3.794108,-11.909774,6.716406,4.997645,26.975898,23.055335
4612.000000,1,Relaxed,5.431876,-2.663547,6.281012,-6.670597,8.571324,-1.657851,29.878990,20.436424
4616.000000,1,Relaxed,8.068758,-4.282487,7.245802,-7.348162,14.205286,-1.856305,26.634119,11.040251
4620.000000,1,Relaxed,9.090140,-5.775415,13.029662,-8.403248,17.091933,-5.969376,19.321712,7.780449
4624.000000,1,Relaxed,12.794305,-2.009812,,-4.235982,21.054064,-9.999221,15.847441,-1.855734
4628.000000,1,Relaxed,9.113245,-1.792145,17.834317,-7.313348,17.938486,-9.913570,10.463094,-8.289246
4632.000000,1,Relaxed,7.730730,5.847110,19.546404,-2.130639,18.457171,-18.264009,3.621924,-13.065453
4636.000000,1,Relaxed,0.820876,14.032373,15.598271,-0.332579,18.408645,-16.992001,-3.392928,-17.473285
4640.000000,1,Relaxed,-1.449800,13.714423,11.401640,-0.259384,11.277212,-18.186355,-6.716432,-22.296782
4644.000000,1,Relaxed,-3.004361,13.766571,4.743378,0.380101,12.449677,-16.570012,-6.335378,-31.798294
4648.000000,1,Relaxed,-5.166633,13.826592,8.612778,11.651135,8.452128,-11.231737,-10.176490,-31.083838
4652.000000,1,Relaxed,-7.464309,12.387595,1.968202,9.641491,3.022496,-11.303991,-17.901417,-26.989153
4656.000000,1,Relaxed,,15.281503,2.091807,7.022086,-3.988299,-9.145696,-21.438622,-22.702745
4660.000000,1,Relaxed,-13.127165,20.070559,-5.264169,6.214705,-10.440032,-0.845792,-22.059780,-25.772887
4664.000000,1,Relaxed,-19.314816,13.000077,-8.188268,2.122346,-15.039585,6.358366,-27.587848,-17.236227
4668.000000,1,Relaxed,-17.496187,8.479849,-5.263108,0.658811,-11.373119,13.650257,-22.638180,-14.041779
4672.000000,1,Relaxed,-18.167190,4.126466,-4.721964,-5.663834,-11.236251,8.746042,-14.259194,-12.263306
4676.000000,1,Relaxed,-20.063385,-2.939329,-4.563416,-6.945296,-12.539916,20.284340,-13.718305,-5.872961
4680.000000,1,Relaxed,-18.153346,-7.581603,-1.523886,-14.125735,-9.476643,21.237724,-11.707768,1.614132
4684.000000,1,Relaxed,-17.898132,-7.833780,-1.768505,-14.259350,-10.250877,21.283154,-3.026609,9.036229
4688.000000,1,Relaxed,-18.115183,-10.343308,-0.065431,-17.843168,-10.317591,22.163750,6.120313,16.138247
4692.000000,1,Relaxed,-18.760701,-10.112611,-1.546366,-17.525060,-12.757381,20.271009,6.809539,18.069236
4696.000000,1,Relaxed,-12.696303,-10.869155,0.614845,-17.210931,-5.190760,19.938343,19.825549,20.560645
4700.000000,1,Relaxed,-9.533310,-9.848594,-2.615291,-15.196124,-6.117015,17.373458,25.269780,18.948413
4704.000000,1,Relaxed,-6.863030,-12.675592,3.976408,-13.467593,-0.028049,19.883413,27.287041,17.224486
4708.000000,1,Relaxed,0.688200,-12.196173,4.223133,-7.214016,1.404244,15.692720,32.493428,17.083000
